Fp1,Fp2,F3,F4,C3,C4,P3,P4,O1,O2,A1,A2,F7,F8,T3,T4,T5,T6,Fz,Cz,Pz
-0.03,5.29,3.51,-0.75,1.92,-1.46,-1.47,-1.07,-1.31,-5.85,3.37,3.12,4.94,0.63,6.03,-0.15,2.7,-3.42,-0.2,0.04,-0.48
1.54,3.82,4.04,-1.0,0.54,-1.71,-2.86,-2.88,-2.89,-6.64,2.7,2.69,4.0,-0.23,2.38,-0.04,1.74,-4.54,1.03,-0.17,-2.61
4.35,6.5,6.49,0.49,1.07,-1.57,-2.78,-1.66,-1.76,-4.7,6.37,1.31,7.23,1.25,6.66,-0.83,3.49,-3.12,3.09,-0.41,-2.02
4.14,7.44,6.81,0.71,0.95,-2.74,-3.47,-1.04,-2.37,-3.5,5.04,5.61,9.08,1.22,8.91,-1.95,2.09,-1.63,3.44,-0.79,-2.03
3.65,6.25,5.81,0.97,1.7,-2.42,-3.39,-1.18,-2.21,-3.33,8.01,6.17,8.24,3.04,6.91,-0.52,2.39,-1.7,2.13,-0.72,-2.26
3.53,8.33,5.35,2.61,1.69,-1.95,-2.44,-0.87,-0.69,-2.16,10.55,4.12,8.04,4.84,10.63,0.64,4.49,-1.76,2.79,-1.57,-1.27
1.51,9.65,3.64,2.93,1.12,-1.27,-4.02,0.7,-0.5,0.8,10.05,7.31,7.49,7.18,7.76,3.38,2.25,0.1,0.17,-3.3,-1.97
1.66,7.98,3.82,2.94,0.48,-0.83,-2.71,2.93,2.44,3.26,9.48,10.38,6.37,4.42,5.3,2.44,3.69,3.16,1.7,-1.53,-0.3
1.85,7.83,4.94,3.9,-0.98,0.24,-4.48,1.41,-0.62,-0.4,6.76,8.56,3.95,3.65,2.06,5.39,0.16,-0.19,1.79,-0.51,-2.14
3.68,7.57,6.63,3.46,-0.35,-0.1,-5.53,0.58,-2.36,-1.0,5.15,2.7,3.48,3.95,0.75,6.66,-2.38,-0.84,4.05,0.05,-3.03
6.06,10.48,7.98,4.48,0.85,-1.29,-2.68,1.22,1.25,1.5,4.77,4.75,6.26,4.05,6.51,0.3,0.3,-1.37,5.88,1.45,-0.53
4.47,9.73,7.43,2.52,1.58,-1.5,-2.63,2.21,1.9,2.76,4.76,4.79,5.09,4.41,6.1,2.05,2.3,-1.27,4.44,0.04,-1.58
4.71,11.18,6.02,2.67,1.47,-1.78,-0.85,3.63,4.68,3.22,9.63,6.71,6.71,5.42,8.05,0.51,4.26,-0.68,3.55,-1.2,0.55
5.06,10.86,5.02,3.62,0.27,-0.73,-1.23,5.01,5.39,5.46,10.17,11.42,6.32,6.27,6.07,2.5,6.03,3.55,4.31,-1.63,0.76
-0.24,6.06,2.13,2.39,-1.27,-0.01,-2.48,4.06,3.14,3.71,5.02,8.52,2.04,3.29,5.94,2.46,2.63,3.61,-0.2,-1.23,-1.22
4.37,6.43,5.37,3.12,1.49,-0.35,-1.15,4.44,3.34,3.28,8.29,6.69,4.03,2.51,3.43,1.13,3.94,2.86,3.76,0.58,1.84
3.04,6.62,6.27,0.93,0.97,-0.77,-2.25,2.98,2.48,3.2,6.8,4.5,4.98,2.01,5.06,2.21,1.71,2.51,2.77,1.39,1.42
2.81,5.99,7.1,1.07,2.47,-1.23,-2.32,1.16,3.14,2.5,5.91,7.44,6.05,1.12,7.8,2.54,1.76,-0.86,3.56,0.95,0.78
3.09,10.13,5.88,2.85,0.24,0.47,-4.92,-1.24,-0.3,-1.36,3.84,3.9,4.26,4.58,3.69,6.98,-0.21,-3.32,2.57,0.55,-1.76
7.51,13.0,8.38,5.78,1.4,-0.9,-4.62,-2.53,-0.87,-0.76,6.49,5.73,6.58,7.83,4.77,3.01,-1.01,-1.99,6.74,-0.85,-2.77
8.71,13.09,9.58,5.73,2.4,-2.41,-5.15,-5.69,-3.69,-5.37,5.53,3.74,7.56,5.8,3.73,0.46,-1.49,-5.91,7.83,-0.9,-4.72
10.14,10.84,11.14,5.66,2.24,-1.77,-2.73,-2.68,-1.36,-2.45,6.93,7.07,7.63,5.12,3.96,0.39,0.9,-3.67,9.53,-0.77,-3.53
6.95,7.69,12.44,4.43,2.59,-1.98,-1.42,-1.73,-0.12,-0.75,4.37,7.58,5.96,2.67,3.7,1.31,3.5,-2.76,7.32,-0.26,-2.31
7.9,9.04,13.63,2.87,4.14,-3.17,-1.41,-2.56,-0.56,-2.72,5.01,6.3,8.47,2.38,8.09,0.37,4.15,-5.25,8.05,0.47,-3.04
7.17,5.25,15.64,0.68,5.59,-4.84,-1.28,-2.22,-0.53,-1.9,5.67,5.71,11.37,0.74,12.45,-2.84,5.46,-5.21,6.39,1.16,-2.38
7.65,8.36,13.14,0.76,4.69,-5.29,-3.19,-2.2,-1.92,-3.64,5.9,3.99,10.59,1.72,12.26,0.52,2.73,-3.95,6.75,-0.24,-3.08
8.63,8.8,12.27,3.03,3.13,-3.83,-4.75,-3.38,-3.24,-5.96,6.24,2.35,7.01,2.53,7.45,1.73,0.37,-3.92,8.09,1.18,-4.31
8.06,8.67,9.89,4.68,0.51,-1.91,-4.14,-2.15,-1.02,-3.11,4.35,1.39,5.81,3.9,5.97,3.47,1.12,-1.85,8.28,0.38,-3.04
6.28,7.0,8.16,3.76,-0.19,-1.35,-0.97,1.85,3.31,1.59,4.47,-0.13,5.06,2.45,6.37,1.19,4.07,2.95,6.54,0.75,0.02
5.96,4.24,6.24,2.38,0.47,-1.53,2.14,2.15,4.68,2.52,6.2,1.94,4.01,1.35,6.79,-0.01,6.99,3.82,5.12,0.63,1.13
2.47,0.35,6.72,-0.16,2.78,-2.71,3.02,1.49,3.57,0.96,3.76,0.17,4.56,-2.14,7.95,-1.52,6.07,2.95,2.32,0.35,2.07
3.85,1.37,8.74,-0.3,3.52,-2.84,3.28,-0.16,3.63,0.92,5.39,-0.39,3.89,-3.14,5.71,-1.12,5.66,1.84,3.57,-0.26,1.01
2.52,2.4,8.39,0.42,2.34,-2.94,0.97,-2.25,0.58,-0.59,-0.15,2.98,2.24,-2.38,5.03,-1.43,1.7,-0.07,2.37,-1.33,-1.97
2.03,-1.46,6.88,-0.33,2.38,-2.32,-0.95,-1.73,-0.65,-0.48,-0.13,-3.37,1.93,-3.78,3.77,-1.57,-0.78,-0.97,2.76,0.38,-1.31
0.9,-0.31,5.54,-1.83,2.61,-3.33,-0.98,-1.36,0.49,1.42,1.63,-0.8,3.32,-3.78,5.2,-2.71,-0.72,-0.47,1.63,1.92,-0.39
0.85,-4.54,3.21,-3.49,0.7,-1.83,-2.57,-0.14,-0.51,1.38,2.16,-0.4,2.64,-4.9,3.1,2.31,-0.82,-1.36,1.09,1.64,-0.41
2.22,0.65,2.92,-0.95,-0.06,0.47,-4.6,-0.12,-3.51,-1.34,-1.01,-3.7,1.18,-1.36,-0.46,2.54,-3.75,-2.86,2.31,3.41,-3.4
8.43,5.86,6.34,3.42,0.34,0.87,-4.65,-0.68,-3.37,-1.88,1.01,-0.15,4.57,1.63,-0.13,-1.31,-4.14,-2.9,7.72,3.34,-3.18
4.87,6.2,3.09,4.19,-0.67,0.48,-5.57,-1.26,-4.58,-3.76,3.13,1.35,0.28,4.14,-0.1,0.61,-5.34,-3.08,4.73,0.93,-3.55
5.86,6.31,2.36,4.56,0.43,1.01,-3.0,-0.65,-3.0,-3.8,0.25,2.54,1.45,5.21,4.68,1.15,-3.84,-2.77,5.59,0.82,-1.66
1.93,1.16,0.37,2.42,0.31,0.28,-0.4,-0.41,-0.87,-2.25,-0.86,3.43,0.24,3.91,4.75,2.75,-3.87,-2.02,1.93,0.46,0.45
2.82,4.42,-0.03,3.02,-0.86,0.7,-0.71,-0.22,-1.04,-2.02,-1.28,2.48,-0.94,6.77,1.97,3.04,-5.13,-1.88,2.14,0.28,0.02
2.32,2.68,0.99,3.16,0.12,0.33,0.31,-1.46,-1.69,-2.36,-4.32,2.31,-1.89,4.68,-4.55,0.03,-5.72,-4.2,2.13,1.45,-0.95
2.35,2.4,0.62,2.11,-0.77,-0.64,-2.92,-3.8,-5.42,-6.34,-3.23,-3.27,-0.71,1.88,-5.55,-0.43,-9.75,-5.89,2.68,1.46,-3.78
0.11,2.0,-0.45,1.52,-0.36,0.3,-4.09,-4.31,-6.13,-7.27,-3.81,0.41,-3.69,2.76,-6.88,1.92,-9.46,-8.35,0.49,2.44,-4.45
1.77,-0.6,-0.26,2.02,-0.73,1.33,-6.08,-4.9,-7.75,-7.92,-6.72,-8.64,-4.31,0.35,-7.07,1.74,-10.31,-7.12,2.27,2.12,-5.28
0.66,-1.52,0.36,-0.93,0.2,0.32,-4.85,-2.11,-7.09,-6.19,-8.77,-5.55,-3.55,-1.64,-3.05,-4.06,-10.78,-6.34,-0.04,2.36,-4.12
-0.57,-4.38,-1.09,-2.33,-0.27,-0.06,-4.33,-1.1,-4.74,-5.26,-9.82,-7.14,-4.77,-3.7,-4.89,-5.71,-10.08,-7.28,-0.63,2.49,-2.59
-2.34,-3.35,-1.19,-1.07,-1.24,2.26,-4.28,1.8,-3.34,-2.74,-9.36,-6.31,-7.75,-3.27,-9.37,-2.83,-9.19,-5.01,-1.79,2.57,-1.31
-1.23,-1.26,-1.23,-0.67,-2.73,1.28,-6.57,0.53,-5.73,-4.26,-11.39,-4.69,-9.44,-4.01,-11.1,-5.94,-11.98,-6.51,0.28,1.89,-3.29
-2.11,-3.53,-0.26,-0.48,-3.18,3.01,-8.51,0.54,-5.88,-4.8,-10.72,-6.65,-8.25,-2.73,-9.94,-0.74,-11.55,-4.05,-1.08,0.68,-5.49
0.07,0.1,-0.91,2.17,-3.3,3.47,-8.75,-0.84,-6.18,-4.31,-11.16,-5.33,-8.72,0.02,-10.74,-0.06,-10.75,-2.82,0.93,-0.46,-7.03
-1.42,-0.54,-1.62,3.49,-3.86,4.82,-8.46,-0.91,-5.79,-5.53,-9.83,-5.38,-8.56,-0.76,-6.96,3.43,-8.13,-1.8,-0.91,-0.9,-7.07
-0.87,-1.6,-1.63,2.54,-3.76,4.29,-7.69,0.04,-3.71,-5.17,-7.76,-5.79,-6.04,-0.02,-3.86,4.24,-7.23,0.23,-0.64,-3.54,-6.47
0.6,1.02,0.38,7.14,-4.82,5.25,-7.69,0.45,-4.11,-4.15,-3.87,0.02,-4.2,4.72,-2.34,5.0,-5.5,3.08,0.85,-2.5,-5.98
-0.19,0.78,-1.81,7.58,-8.1,7.68,-8.71,3.89,-4.98,-0.48,-4.07,1.03,-7.76,4.21,-8.05,8.74,-8.32,7.6,0.39,-2.7,-5.26
3.43,5.81,1.09,9.14,-8.15,8.05,-11.32,3.38,-7.55,-1.88,-1.63,4.45,-6.22,8.67,-6.78,9.21,-9.01,8.64,3.79,-2.18,-7.12
3.63,6.33,0.25,10.11,-6.66,7.27,-10.6,1.16,-8.55,-2.87,-1.52,6.49,-5.11,10.2,-6.14,11.84,-7.93,8.73,3.96,-2.66,-9.29
-1.1,1.26,-2.31,7.78,-6.92,7.89,-9.26,1.92,-6.03,-2.4,-2.31,5.12,-5.24,8.11,-5.63,13.39,-4.77,8.56,-0.75,-3.49,-9.01
1.3,0.22,0.44,7.15,-5.0,5.64,-6.88,0.86,-5.32,-4.82,-2.74,0.49,-4.07,6.0,-1.6,8.37,-3.49,4.77,1.69,-3.51,-8.27
3.6,2.46,2.12,7.6,-3.54,3.65,-4.66,0.68,-2.34,-2.61,-1.67,3.53,-1.03,5.51,3.95,7.57,-1.35,4.73,2.6,-3.63,-8.5
1.58,2.28,-0.03,7.34,-5.3,5.19,-5.76,0.88,-2.68,-3.12,-1.14,-1.79,-4.35,3.94,-2.64,8.77,-1.04,4.13,1.8,-2.64,-8.47
2.8,3.65,0.68,5.79,-3.97,4.7,-2.08,2.08,2.73,1.23,1.6,2.93,-3.83,5.24,-1.66,4.77,2.56,5.97,2.92,-1.43,-5.96
0.88,2.78,-1.74,4.7,-3.97,5.02,-1.52,3.92,4.86,5.11,1.31,2.96,-5.03,5.02,-2.61,7.94,3.85,9.68,1.36,-3.52,-4.74
0.62,3.58,-3.25,6.39,-3.97,4.56,-2.38,1.24,2.89,1.1,-0.49,2.69,-7.0,6.99,-4.21,6.41,3.15,7.36,0.48,-3.05,-7.22
-1.22,-1.78,-3.64,3.34,-3.85,3.45,-1.54,2.25,2.36,1.44,-2.64,4.69,-9.4,4.08,-5.98,7.61,1.27,8.0,-0.85,-3.1,-4.87
-1.62,0.63,-4.54,3.08,-4.36,5.36,-2.2,5.69,1.71,3.76,-4.19,2.21,-9.65,4.84,-5.61,10.87,-2.28,10.76,-1.79,-2.92,-4.12
-3.08,-3.21,-4.73,1.77,-4.49,4.44,-1.03,5.54,-0.15,2.0,-6.98,-0.56,-10.21,2.26,-4.31,8.48,-2.4,9.63,-2.5,-2.12,-3.3
-5.53,-8.79,-4.77,-2.43,-2.35,2.58,2.07,6.07,2.07,4.39,-8.41,-5.57,-9.73,-3.94,-3.63,3.56,-1.22,8.88,-4.53,-0.53,-0.46
-7.03,-11.76,-5.67,-5.28,-0.82,1.33,4.11,6.64,3.33,4.55,-7.85,-9.64,-10.58,-8.16,-5.91,4.82,0.37,7.21,-5.02,-0.15,0.29
-7.33,-9.47,-6.17,-2.45,-0.98,0.3,1.34,3.9,2.28,3.07,-10.43,-7.64,-10.63,-5.61,-5.79,0.31,0.49,4.23,-6.38,-0.68,-1.52
-5.53,-8.49,-6.47,0.4,-0.68,1.17,0.91,4.32,3.0,4.71,-8.77,-6.99,-9.72,-5.0,-3.58,0.2,1.1,5.31,-4.3,1.26,-0.82
-6.17,-4.07,-6.01,1.25,-2.04,2.94,-1.27,6.43,0.74,5.0,-6.04,-4.47,-9.36,-0.18,-7.56,2.61,-1.24,7.0,-5.12,1.16,-1.19
-5.01,-6.18,-4.57,-0.46,-2.72,2.54,-0.72,7.73,1.46,6.46,-3.12,-3.43,-6.06,-1.1,-3.12,0.87,-1.8,6.12,-4.24,0.75,0.14
-4.29,-4.21,-2.5,-1.04,-1.62,1.6,-0.76,6.58,0.39,3.97,-7.85,-8.05,-6.48,-1.59,-1.27,3.28,-1.89,6.16,-3.4,2.08,0.86
-1.74,-4.6,-2.24,-1.54,-1.13,1.06,0.3,6.7,0.25,3.93,-5.83,-7.16,-5.55,-2.78,-2.1,2.26,-1.14,5.48,-1.24,2.0,0.6
-5.11,-6.52,-3.24,-1.1,-1.21,0.38,0.42,3.81,-0.31,1.31,-10.5,-8.29,-7.58,-2.01,-3.97,-0.31,-1.06,3.17,-3.36,3.18,0.5
-3.76,-6.89,-3.5,-0.39,-0.21,0.28,0.21,3.32,-0.49,1.14,-10.74,-9.14,-8.79,-3.35,-3.38,-0.34,-0.52,2.88,-2.79,3.65,1.39
-5.84,-9.42,-5.12,-1.41,-1.78,0.18,-3.21,0.35,-7.05,-5.02,-13.8,-12.98,-11.16,-6.28,-7.93,-1.71,-5.79,-2.67,-5.01,4.11,-1.77
-5.08,-8.99,-4.41,0.5,-0.05,0.44,-1.93,-1.52,-7.02,-6.29,-12.29,-11.49,-13.79,-5.2,-8.71,-6.64,-7.13,-5.67,-3.53,5.81,-0.64
-5.82,-8.68,-4.53,-0.82,-0.28,-0.68,-2.98,-3.5,-8.32,-8.64,-18.08,-17.52,-14.1,-6.48,-6.01,-7.64,-8.54,-8.86,-5.07,4.79,-1.46
-5.72,-13.4,-4.84,-0.96,0.52,-0.13,-1.86,-2.32,-6.52,-6.87,-17.95,-18.44,-13.46,-8.87,-6.31,-8.02,-5.66,-7.54,-4.04,4.65,-1.19
-6.71,-11.96,-2.84,-1.45,0.76,-0.57,-3.96,-5.19,-9.12,-9.7,-19.5,-19.58,-12.09,-8.56,-7.84,-8.89,-7.87,-9.47,-5.06,5.3,-3.65
-5.35,-14.25,-3.34,-2.07,-0.63,-0.58,-4.52,-2.75,-8.63,-8.62,-17.19,-18.95,-10.55,-9.59,-8.58,-7.11,-9.2,-7.08,-3.94,5.24,-3.98
-6.81,-15.12,-3.97,-2.35,-0.34,0.38,-2.85,-0.59,-6.49,-5.01,-17.49,-18.61,-13.83,-10.66,-7.62,-6.17,-8.05,-3.39,-4.62,6.62,-1.47
-4.74,-11.9,-3.68,-0.77,-0.64,1.0,-1.22,2.11,-5.56,-3.03,-14.09,-16.6,-13.67,-9.37,-10.72,-5.4,-7.04,-0.38,-3.29,6.57,-0.4
-2.98,-8.63,-3.1,-1.82,0.45,-0.28,2.23,1.42,-2.7,-1.7,-13.54,-14.54,-11.14,-9.76,-7.53,-7.94,-4.07,-2.18,-2.02,5.71,0.99
-4.17,-13.43,-3.63,-3.67,1.28,-0.71,2.03,-0.51,-6.74,-4.41,-11.59,-16.27,-11.48,-11.58,-9.44,-6.69,-5.6,-5.69,-2.93,5.74,0.58
-4.33,-12.76,-3.46,-2.31,0.29,-0.94,-1.82,-3.03,-10.7,-8.55,-16.18,-15.43,-10.82,-10.2,-7.29,-8.41,-8.89,-8.88,-3.66,4.1,-2.69
-3.65,-12.82,-1.62,-2.57,2.18,-2.37,0.04,-3.4,-10.01,-7.6,-13.69,-16.1,-9.65,-10.68,-4.49,-12.92,-8.62,-8.43,-2.2,5.35,-1.54
-2.99,-7.93,-1.07,-3.26,2.25,-3.3,-0.23,-3.13,-9.06,-6.38,-10.41,-14.51,-8.44,-9.13,-4.8,-11.0,-8.17,-7.35,-2.74,5.71,-0.92
-0.36,-8.16,0.34,-3.57,2.77,-3.1,1.06,-0.84,-4.8,-2.17,-8.7,-15.04,-7.1,-9.31,-6.11,-10.34,-4.81,-4.9,0.01,6.38,1.32
-0.83,-6.87,-1.15,-3.6,1.97,-3.37,1.15,-0.26,-4.79,-1.67,-8.9,-15.05,-6.76,-8.7,-7.5,-9.49,-5.35,-5.15,-1.16,6.91,1.79
0.33,-5.55,-1.28,-1.64,2.41,-2.31,0.68,-0.78,-4.34,-0.76,-8.78,-10.52,-4.86,-5.22,-5.09,-6.68,-4.49,-4.8,0.25,6.06,0.45
-5.54,-7.47,-5.19,-1.67,0.49,-2.01,-0.29,-3.47,-5.22,-3.5,-10.12,-14.13,-9.77,-4.76,-5.13,-8.44,-4.7,-8.17,-4.85,5.15,-1.11
-4.18,-7.34,-5.22,-0.83,0.96,-1.77,-1.2,-4.43,-4.55,-4.72,-10.29,-14.71,-8.88,-3.94,-0.58,-8.28,-3.87,-8.41,-4.09,4.44,-3.0
-4.53,-6.62,-4.63,-1.61,1.18,-1.23,-0.98,-4.41,-3.83,-3.73,-9.16,-11.71,-7.92,-4.33,-1.74,-9.11,-2.66,-7.21,-4.09,3.92,-3.25
-2.52,-9.23,-3.11,-3.08,0.43,-0.99,-1.84,-3.95,-4.31,-3.59,-7.42,-10.52,-7.61,-5.04,-5.72,-9.0,-3.52,-8.53,-2.27,3.76,-2.53
-3.09,-7.33,-1.11,-2.66,-0.1,-0.06,-3.12,-2.83,-5.46,-3.32,-8.47,-11.69,-8.78,-5.25,-6.4,-3.54,-5.12,-8.08,-3.01,2.89,-3.5
-1.86,-8.07,0.12,-2.34,-0.39,-0.02,-2.0,-0.7,-3.86,-0.68,-5.39,-10.98,-7.24,-3.26,-6.8,-2.69,-4.24,-4.48,-0.69,2.14,-3.42
-2.96,-7.33,-0.52,-3.04,-0.64,-0.16,-2.1,0.43,-1.49,1.65,-2.91,-11.17,-6.03,-4.34,-6.19,-6.39,-4.61,-2.82,-2.76,4.1,-1.36
-2.43,-7.42,-1.5,-3.18,-0.42,-0.77,-0.86,1.01,0.84,4.04,-5.08,-7.96,-7.42,-4.01,-7.3,-5.96,-4.63,-3.03,-2.24,4.45,-0.43
-5.0,-12.68,-2.49,-5.74,0.37,-0.2,1.2,3.63,3.19,6.8,-5.47,-8.39,-7.59,-5.64,-4.09,-5.97,-3.96,-0.81,-5.19,4.7,2.43
-4.46,-11.81,-2.79,-5.71,0.33,-0.28,1.49,3.55,3.07,6.13,-7.71,-7.58,-6.33,-4.76,-1.18,-4.62,-4.48,-0.7,-5.46,3.39,2.08
-5.61,-10.38,-4.17,-5.82,-0.97,-0.42,1.41,2.65,2.65,5.68,-5.16,-6.89,-6.42,-3.39,-3.33,-2.77,-4.8,0.03,-5.91,1.38,1.02
-3.09,-6.49,-3.09,-5.38,2.45,-2.06,4.23,2.13,2.92,4.0,-3.14,-8.44,-5.03,-4.11,-2.34,-4.79,-2.41,-0.12,-3.9,3.1,1.99
-4.47,-12.05,-1.6,-4.06,2.78,-3.67,3.94,-0.69,2.08,2.47,-3.25,-8.09,-1.75,-5.16,-2.63,-8.33,-1.74,-2.5,-4.55,3.41,1.79
-0.96,-6.79,0.57,-1.6,2.85,-2.85,3.85,-1.81,0.52,0.76,-6.44,-11.57,-0.27,-3.58,-3.4,-9.01,-1.85,-6.55,-0.83,2.76,1.18
2.01,-1.45,1.31,-1.42,2.6,-1.97,2.76,-3.39,0.2,-0.65,-3.37,-12.64,-0.98,-5.45,-3.04,-9.27,-0.05,-8.84,1.04,2.23,0.67
8.56,3.35,4.87,0.22,1.99,-1.85,1.46,-4.01,-0.46,-1.95,-5.56,-15.65,2.01,-2.64,-1.24,-11.31,-1.72,-9.97,6.23,1.03,-1.35
8.4,11.0,3.25,2.71,0.14,-0.62,-1.51,-4.49,-2.19,-3.92,-6.77,-16.27,4.21,4.14,-1.88,-7.82,-3.59,-11.9,5.9,0.64,-2.78
11.01,14.74,0.34,2.69,-2.2,1.2,-3.65,-2.8,-2.88,-2.86,-11.87,-18.44,0.96,5.13,-4.7,-4.93,-6.38,-8.35,8.27,0.06,-2.95
16.5,24.21,1.33,5.76,-1.9,0.43,-3.6,-3.77,-3.23,-2.27,-11.61,-13.05,3.4,11.83,-4.51,-5.05,-8.62,-8.26,11.32,1.73,-2.92
25.88,35.84,5.78,8.2,-1.69,0.57,-5.86,-4.47,-5.9,-3.21,-10.58,-17.04,11.33,14.3,-2.26,-2.9,-10.46,-9.3,20.02,1.39,-4.02
39.74,57.16,9.94,15.62,-1.7,2.35,-7.3,-5.93,-7.75,-5.45,-10.6,-12.81,14.81,22.66,-2.26,-3.74,-11.71,-9.77,31.25,2.58,-5.66
48.18,70.09,15.29,18.38,-0.78,-0.06,-7.34,-8.6,-8.76,-8.94,-9.89,-16.27,22.54,23.81,-0.68,-8.06,-11.03,-14.29,39.61,2.53,-8.04
51.59,78.4,17.53,21.12,-1.96,0.25,-9.34,-10.64,-10.35,-11.15,-13.56,-24.88,24.81,27.37,-0.73,-3.91,-12.14,-15.71,41.65,1.06,-10.24
54.76,82.11,18.16,23.33,-2.75,2.94,-8.69,-8.21,-8.28,-10.13,-17.65,-25.49,25.45,27.59,0.36,-1.87,-10.33,-12.86,44.8,1.19,-10.42
60.52,93.15,18.58,24.17,-2.23,0.78,-6.99,-9.09,-8.1,-10.39,-17.57,-28.78,28.41,31.28,2.12,-4.31,-9.08,-13.24,48.0,-0.39,-10.0
60.7,92.07,21.85,21.46,3.08,-3.56,-2.58,-9.36,-4.69,-9.43,-17.9,-24.77,31.16,28.58,5.46,-10.83,-4.37,-14.15,49.04,-1.68,-7.95
62.36,96.01,22.84,21.17,4.85,-4.26,-0.36,-9.93,-3.12,-8.0,-15.64,-27.82,36.17,29.87,5.96,-8.39,-2.15,-14.58,49.44,-2.88,-8.3
63.72,96.54,23.54,20.87,5.61,-6.06,-0.77,-10.02,-2.85,-6.51,-11.32,-28.82,35.89,26.2,8.64,-12.13,-2.59,-14.26,51.11,-4.26,-8.57
54.14,84.0,20.92,19.03,3.53,-5.25,-2.1,-9.71,-5.28,-6.74,-17.08,-29.22,27.36,19.26,3.94,-12.53,-4.21,-14.32,44.17,-2.08,-8.73
60.5,95.43,24.0,23.07,2.8,-3.22,-6.95,-12.13,-10.64,-11.84,-14.55,-33.44,32.47,24.61,6.15,-6.13,-9.84,-17.0,49.7,-1.8,-12.08
55.48,87.24,23.11,21.24,3.1,-4.04,-7.84,-12.87,-13.49,-14.81,-20.24,-35.98,26.68,16.84,1.2,-15.91,-14.06,-20.4,46.25,0.28,-11.66
49.13,70.32,21.81,18.11,4.86,-4.69,-4.2,-12.69,-11.13,-15.21,-23.12,-39.8,22.15,9.17,-1.76,-17.66,-14.46,-23.71,41.29,2.68,-8.36
43.58,64.57,20.76,15.6,7.16,-7.17,-2.38,-14.31,-10.52,-15.89,-22.47,-39.87,21.33,7.51,-3.45,-17.73,-12.12,-24.92,36.45,2.24,-7.76
39.67,55.94,16.32,14.07,5.78,-6.34,-0.44,-12.48,-8.62,-13.91,-22.42,-35.53,15.74,7.14,-4.38,-16.28,-8.95,-20.28,32.57,1.96,-6.34
34.84,53.32,13.78,14.42,3.8,-5.06,-1.37,-12.69,-8.61,-14.54,-20.87,-30.5,13.19,9.79,-0.8,-11.13,-6.69,-21.58,29.05,1.0,-7.5
32.62,56.19,10.64,17.83,0.28,-1.59,-2.12,-11.98,-7.45,-15.61,-23.53,-28.32,10.59,16.38,-0.88,-9.31,-5.14,-19.16,28.76,1.35,-7.94
30.93,50.68,10.06,17.66,-0.52,0.7,-2.22,-7.95,-3.86,-9.07,-13.89,-21.07,11.57,13.54,-0.85,-7.35,-3.07,-13.25,26.05,1.34,-6.44
26.03,41.04,10.1,14.03,0.78,-0.15,-1.88,-6.98,-0.94,-5.71,-10.46,-21.99,12.66,7.67,3.37,-6.36,0.12,-10.57,22.82,0.78,-5.61
21.97,32.45,10.59,11.0,2.9,-2.57,0.93,-6.97,2.29,-3.75,-9.32,-17.57,12.52,5.84,4.94,-7.42,3.1,-9.85,18.27,-0.08,-4.49
20.11,34.66,9.75,10.98,3.01,-3.15,-0.53,-7.94,2.29,-3.87,-3.22,-13.4,12.41,8.95,5.14,-4.79,4.86,-8.81,17.79,-1.91,-6.58
14.31,27.61,8.68,9.22,2.46,-3.66,-1.01,-8.26,1.05,-3.97,-5.3,-12.53,13.17,5.7,9.85,-5.59,2.92,-9.4,12.33,-2.61,-6.44
13.4,24.49,7.6,7.36,2.61,-1.71,0.68,-4.2,3.2,0.75,-3.46,-13.35,11.82,3.47,7.48,-4.94,2.67,-7.35,11.25,-1.21,-1.98
5.53,13.43,3.28,3.15,1.56,-2.43,-1.14,-4.41,-0.58,-1.37,-7.58,-16.64,5.3,-1.94,1.24,-7.27,-3.17,-8.37,4.1,0.09,-1.5
7.5,14.74,3.46,2.81,3.75,-3.67,-0.44,-5.78,-3.34,-3.41,-5.32,-14.52,8.0,-0.59,2.31,-8.49,-4.06,-10.1,5.61,0.55,-2.7
1.82,8.3,-0.04,0.67,3.49,-4.13,-0.05,-7.02,-3.83,-4.55,-6.73,-12.77,3.34,-2.11,-0.66,-9.73,-4.0,-11.8,0.89,-1.14,-3.99
-0.59,6.41,-2.46,1.57,2.93,-3.27,0.78,-5.77,-2.84,-3.52,-3.0,-10.34,0.26,-1.24,2.6,-7.6,-3.12,-9.25,-0.39,-1.71,-3.51
-2.1,6.89,-3.56,2.87,1.97,-1.53,0.69,-4.99,-0.82,-1.0,0.24,-5.69,-0.38,0.23,0.14,-0.55,0.43,-5.42,-1.71,-2.66,-4.04
-2.32,3.32,-2.89,1.96,0.24,-0.71,-1.54,-6.13,-2.29,-1.69,-0.77,-5.87,0.61,-1.18,5.79,1.04,-1.03,-3.9,-2.53,-3.13,-4.77
-2.0,2.45,-1.2,2.32,-0.55,0.26,-3.63,-5.52,-1.54,-3.76,2.26,-2.23,-0.13,-0.82,3.02,0.04,-1.04,-2.84,-2.9,-1.84,-5.8
0.99,3.81,0.81,2.73,-0.51,0.98,-5.75,-6.67,-3.58,-5.1,5.33,1.64,1.84,2.16,0.27,1.61,-1.54,-3.04,0.61,-0.9,-7.68
-1.14,0.46,1.57,2.38,0.59,-0.53,-4.63,-6.21,-1.59,-4.18,11.13,3.27,2.98,1.0,4.36,-0.59,0.69,-3.53,-0.99,-1.2,-7.41
-2.05,0.03,2.29,-0.33,2.27,-1.78,-1.27,-4.86,2.08,-1.1,15.18,1.45,5.02,-0.85,6.76,-3.03,3.62,-5.52,-1.77,-0.14,-3.81
-3.13,-4.15,3.68,-1.85,3.07,-2.82,2.3,-1.98,8.98,7.14,16.53,0.04,5.35,-4.03,7.74,-1.64,7.56,-2.74,-2.95,2.09,0.97
-4.34,-7.72,3.99,-3.0,4.55,-3.57,6.24,1.95,14.78,13.49,16.19,-0.8,5.29,-7.04,10.83,-0.95,9.96,0.98,-4.11,3.19,5.51
-7.88,-11.99,1.67,-5.54,3.38,-3.17,8.35,3.94,16.42,16.52,12.61,1.36,2.34,-11.27,8.73,-1.44,9.2,2.33,-6.92,2.19,7.71
-8.32,-15.39,-0.55,-6.04,1.95,-2.36,8.08,5.82,16.86,18.47,3.84,1.79,-2.25,-11.04,1.48,0.89,6.72,3.9,-7.97,1.65,8.8
-9.99,-14.95,-2.02,-6.26,3.63,-2.7,10.46,6.45,18.4,20.07,4.52,5.56,-2.8,-11.99,1.11,-5.45,7.02,3.06,-8.67,1.21,9.7
-11.84,-16.01,-3.49,-5.12,1.05,-1.98,6.19,5.17,15.72,16.25,2.3,5.99,-4.96,-10.0,-1.64,-0.23,3.49,2.92,-10.29,-0.2,7.62
-11.14,-13.58,-2.56,-1.78,0.64,0.18,4.12,6.17,13.21,15.09,2.01,7.15,-4.41,-6.29,-1.78,-1.0,3.02,3.99,-10.01,1.72,7.08
-12.22,-16.63,-2.22,-2.75,-0.06,-0.16,1.57,4.53,8.45,11.36,5.02,8.9,-5.05,-8.03,-1.01,-0.46,2.07,4.66,-9.6,2.46,4.61
-10.26,-13.77,-0.86,-1.67,-0.14,0.24,0.18,1.99,3.48,4.67,5.74,8.96,-3.64,-6.74,0.83,0.39,1.26,2.25,-9.15,1.66,1.05
-9.34,-14.56,-1.46,-2.24,0.44,-0.9,1.01,-1.85,2.34,1.01,8.4,10.91,-3.21,-7.37,0.83,-0.9,2.96,-1.38,-7.18,0.83,0.4
-11.43,-16.37,-0.55,-3.38,1.1,-1.2,2.14,-2.6,1.61,-0.79,8.57,6.29,-1.52,-9.14,2.48,-0.55,4.3,-3.81,-9.68,-0.05,-0.6
-8.83,-13.02,0.8,-1.82,1.36,-0.83,0.64,-3.11,2.34,1.02,12.05,6.58,-0.12,-6.38,5.23,-1.48,4.74,-2.71,-7.08,-0.41,-1.01
-10.23,-13.53,1.79,-1.43,1.52,-1.27,1.13,-1.26,5.51,6.38,13.76,8.31,-0.02,-6.03,4.85,0.7,5.82,-0.92,-8.14,0.3,0.46
-5.65,-10.34,4.72,-1.09,2.66,-2.89,0.16,-3.22,4.48,7.24,16.02,9.65,4.18,-3.67,7.22,-0.67,5.66,-0.35,-4.38,1.27,-0.26
-5.62,-9.54,6.4,-1.1,4.27,-3.92,0.39,-3.94,3.32,6.3,15.56,11.77,6.59,-3.37,11.8,-0.63,5.48,0.57,-4.34,2.01,-1.6
-5.01,-11.41,4.17,-1.57,3.71,-5.0,-0.26,-5.08,2.48,3.5,15.62,9.37,5.28,-5.71,10.08,-0.66,3.7,-2.82,-3.78,-0.48,-2.13
-8.48,-15.64,3.11,-3.46,3.92,-3.51,2.99,-1.63,4.97,5.5,15.81,8.09,3.41,-7.58,11.24,-0.11,5.63,-1.86,-7.57,-0.86,-0.46
-8.15,-15.66,1.48,-2.92,3.04,-2.58,3.88,-0.27,4.76,4.7,12.61,9.66,2.45,-8.53,6.1,-0.25,5.16,-1.28,-7.19,-0.8,0.41
-10.59,-15.07,0.06,-4.58,1.92,-2.03,5.56,2.44,7.72,7.06,13.62,5.83,0.94,-9.38,1.32,-2.0,5.64,0.34,-9.02,-0.39,2.54
-5.0,-12.01,3.51,-3.09,5.16,-3.8,8.86,3.57,10.27,10.0,18.07,11.08,3.39,-8.82,5.2,-4.64,9.86,2.43,-3.44,1.33,5.59
-6.79,-11.35,2.34,-1.74,5.32,-4.13,9.47,1.97,10.71,9.55,15.64,6.92,2.81,-7.74,5.41,-2.93,9.54,0.09,-5.52,1.58,4.5
-7.82,-14.19,3.07,-4.02,5.65,-6.17,7.51,0.16,10.01,9.06,12.82,2.76,2.26,-11.41,8.34,-7.51,8.13,-2.37,-5.75,0.77,2.98
-7.0,-13.73,3.55,-2.8,5.16,-3.87,7.2,1.3,10.88,10.35,11.08,3.25,0.54,-9.75,6.21,-5.43,7.04,-2.71,-6.11,2.5,4.49
-8.09,-16.33,1.65,-2.23,2.01,-2.3,4.84,3.17,11.2,10.58,11.66,2.82,-0.55,-10.16,3.04,-4.6,5.46,-1.67,-5.31,2.32,4.79
-9.73,-16.34,-0.37,-2.96,0.11,-1.14,3.33,4.99,11.03,12.74,10.92,4.81,-2.39,-10.37,-0.23,-2.74,4.74,1.73,-7.81,2.28,4.89
-6.67,-15.08,-0.16,-2.6,0.47,-0.45,3.84,6.86,12.22,14.31,16.59,6.78,-1.01,-8.26,2.17,-4.44,5.73,2.53,-4.68,1.57,6.02
-9.81,-14.06,-0.0,-1.14,0.85,-0.79,5.11,6.47,13.16,15.89,16.34,9.18,-0.33,-7.03,2.13,-2.6,6.12,2.85,-7.86,1.37,5.06
-8.27,-17.72,0.46,-2.33,2.51,-1.29,4.55,4.76,10.63,14.21,12.28,5.14,0.37,-8.55,4.91,0.42,3.83,1.55,-6.5,0.73,4.01
-12.07,-16.74,-0.91,-3.57,2.82,-1.53,3.61,4.81,9.44,13.11,9.61,2.0,-0.79,-10.82,4.9,-5.37,2.42,-0.34,-9.62,1.02,4.22
-9.09,-14.77,-0.32,-2.15,2.03,-0.67,5.35,5.81,11.51,14.67,10.29,3.44,-1.33,-9.73,3.61,-4.13,4.37,1.01,-7.41,0.98,5.68
-12.36,-14.54,-3.03,-3.55,2.52,-1.78,7.16,7.5,13.96,17.14,7.68,2.32,-2.91,-10.11,5.1,-4.85,7.52,1.9,-9.75,-0.93,5.75
-11.59,-15.43,-3.41,-4.01,3.63,-2.52,8.75,6.29,13.93,16.04,10.46,1.32,-2.51,-10.07,4.89,-4.86,9.53,0.99,-10.12,-1.67,6.07
-13.07,-16.66,-2.33,-5.44,3.65,-3.41,8.08,5.6,12.24,14.95,8.24,2.26,-1.65,-9.89,0.15,-2.32,7.39,2.0,-11.8,-1.89,5.08
-11.99,-20.29,-0.91,-5.33,2.78,-2.94,6.09,7.11,10.89,13.88,7.75,5.8,-2.3,-9.68,-0.9,-0.42,5.49,2.01,-10.1,-1.04,6.0
-11.91,-21.91,-0.53,-6.34,1.4,-2.47,5.01,6.86,9.91,12.09,6.68,2.75,-2.47,-10.5,2.09,0.23,4.19,1.43,-11.11,-0.67,5.77
-13.05,-17.32,-0.68,-3.75,-0.08,-0.26,4.63,7.16,9.35,10.41,7.29,4.68,-6.21,-8.3,0.14,-0.99,4.45,1.82,-10.72,-0.52,5.01
-13.89,-16.39,-2.95,-3.22,-0.73,0.74,4.05,7.06,9.02,9.0,3.32,2.28,-8.86,-8.56,-1.82,1.29,2.88,0.9,-11.26,-0.22,5.23
-11.28,-14.83,-2.86,-0.81,-0.65,0.38,5.13,6.53,7.34,8.08,2.4,-1.58,-9.76,-7.13,-4.58,1.72,0.53,1.45,-8.18,0.28,5.88
-13.68,-18.57,-1.59,-1.78,0.02,-1.19,5.56,5.6,7.98,8.96,-1.8,-1.32,-10.33,-10.14,-7.35,-5.16,0.54,0.13,-10.73,0.66,6.87
-10.34,-19.18,-2.27,-3.48,0.26,-1.33,5.93,6.28,7.54,8.34,0.67,-2.46,-7.68,-10.5,-6.14,-3.5,-0.66,-0.99,-8.51,1.66,7.95
-11.57,-20.11,-2.21,-4.06,-0.18,0.22,5.98,6.91,8.43,9.73,0.18,-1.99,-7.17,-10.02,-3.56,-3.35,0.17,-0.81,-9.89,1.94,8.88
-13.54,-21.26,-3.38,-5.84,-1.07,0.53,3.46,6.29,5.26,6.97,-0.88,-3.92,-8.18,-10.29,-1.0,-4.64,0.17,-2.46,-12.01,0.59,5.99
-12.42,-21.55,-3.62,-5.84,-0.16,0.04,2.32,4.99,4.99,5.69,3.51,-0.11,-7.22,-11.5,-1.38,-4.03,1.07,-2.5,-11.92,1.28,3.9
-13.68,-23.96,-1.09,-8.12,0.65,-0.82,2.89,4.62,5.39,5.82,0.36,-3.37,-7.65,-13.31,-2.64,-3.07,2.4,-1.83,-11.58,1.94,4.41
-13.71,-23.38,0.53,-7.36,1.34,-1.25,3.72,1.99,4.45,2.97,3.45,-3.16,-6.45,-12.94,-1.79,-3.7,4.06,-3.87,-11.94,1.68,3.04
-12.8,-23.83,-1.22,-6.47,1.6,-1.36,5.02,2.09,5.95,4.55,2.76,-2.44,-8.0,-14.52,-2.92,-3.64,4.93,-2.97,-10.33,1.09,3.3
-12.92,-23.08,-2.01,-6.8,-0.06,-0.01,4.27,3.44,6.49,4.9,4.0,-1.92,-6.52,-14.35,-2.71,-0.3,3.91,-0.4,-11.42,-0.7,3.76
-9.68,-17.99,-1.08,-3.17,-0.05,0.36,3.68,2.78,5.38,4.81,7.8,2.09,-4.48,-12.05,-1.55,1.81,3.38,-1.3,-8.28,-0.12,3.11
-6.93,-15.83,0.72,-1.13,0.76,-0.87,4.06,0.32,6.17,4.74,7.33,0.43,-0.83,-10.01,3.02,-0.96,4.6,-2.01,-6.58,-0.44,2.64
-3.91,-14.21,3.22,-1.06,2.99,-3.49,4.94,-1.43,5.91,3.6,9.62,0.41,0.69,-10.67,4.96,-6.88,5.46,-4.17,-3.44,0.47,3.45
-7.09,-15.72,1.51,-0.86,3.93,-2.93,6.66,-1.73,5.85,4.68,8.82,2.3,-3.23,-8.83,1.49,-3.78,5.09,-4.37,-5.37,0.13,3.7
-7.09,-17.63,-0.5,-1.56,1.49,-2.98,4.25,0.81,5.13,4.72,7.37,1.77,-3.12,-10.65,0.44,-4.49,3.54,-2.36,-5.81,-2.61,3.64
-9.83,-17.08,-1.16,-1.99,1.06,-1.64,5.58,2.6,6.74,5.71,6.8,2.63,-2.98,-9.83,-0.44,-2.36,4.49,-2.22,-9.17,-3.66,4.06
-9.87,-19.44,-1.7,-4.13,0.92,-1.69,5.8,2.25,8.6,5.4,10.52,2.93,-2.53,-11.8,0.78,-1.24,7.23,-2.87,-8.61,-4.41,3.45
-7.52,-12.57,-1.35,-1.24,0.66,-0.78,6.13,2.94,9.53,5.65,12.02,2.84,-0.3,-6.62,4.53,-1.56,8.87,-4.35,-6.42,-3.5,4.99
-6.95,-14.6,-0.1,-3.8,1.8,-2.26,7.29,2.54,10.46,6.19,13.38,3.24,1.74,-8.34,9.35,-2.77,10.05,-5.67,-5.74,-3.13,5.39
-7.72,-15.03,-0.92,-4.33,1.75,-2.22,7.69,2.65,11.35,8.37,14.77,6.86,2.39,-6.76,7.42,-0.72,8.33,-3.53,-6.89,-3.0,5.04
-6.31,-16.91,-3.24,-3.8,0.7,-0.8,5.9,2.98,8.92,6.63,13.96,5.71,2.92,-6.74,6.07,0.39,7.16,-3.7,-5.81,-2.94,4.38
-6.42,-13.6,-1.18,-2.29,0.9,-0.6,4.45,1.48,6.56,6.55,15.86,11.37,7.13,-4.03,7.8,-1.4,4.85,-1.7,-5.63,-3.22,2.91
-3.21,-10.86,0.72,-0.88,2.22,-1.66,5.21,-0.01,6.81,4.9,18.35,11.46,5.82,-2.22,7.29,-0.88,4.32,-0.17,-3.05,-2.01,3.25
-4.77,-13.15,1.4,-1.13,1.52,-1.05,3.66,-1.4,4.96,2.52,15.85,8.6,4.03,-4.58,4.03,-1.19,2.73,-1.8,-4.72,-1.41,1.28
-5.48,-8.1,0.9,-0.06,2.02,-2.28,2.3,-2.85,3.12,-1.3,16.53,8.75,4.68,-2.67,5.93,-0.81,2.16,-4.13,-4.4,-1.44,-0.35
-8.81,-15.53,0.2,-2.51,3.35,-1.83,3.65,-3.16,2.35,-2.77,11.18,3.81,2.78,-8.03,6.01,-1.74,3.13,-5.78,-8.3,-1.4,-0.59
-6.73,-14.56,-1.0,-4.3,2.94,-2.56,2.17,-3.08,2.71,-4.59,10.56,2.97,5.69,-9.53,10.03,-2.91,4.74,-5.68,-6.92,-4.07,-2.22
-9.14,-15.81,-2.31,-4.27,2.94,-1.14,4.19,0.03,5.06,-0.77,11.44,7.52,5.29,-6.19,11.98,0.08,7.99,-2.3,-8.76,-5.55,-1.31
-8.62,-17.94,-1.62,-5.38,1.95,-1.28,5.67,4.23,9.58,6.49,13.47,8.06,4.66,-11.19,8.99,-1.23,8.96,2.08,-8.3,-4.85,3.17
-9.0,-20.29,-1.72,-5.62,0.89,0.05,7.77,7.01,12.43,10.03,15.68,7.19,5.73,-10.32,6.99,2.73,10.33,4.49,-9.51,-3.3,5.04
-6.9,-5.25,-5.04,1.4,-2.27,3.33,2.89,4.99,6.44,5.51,9.76,13.38,-0.83,9.0,0.74,11.3,3.95,2.69,-6.73,-4.41,2.26
-11.63,-8.84,-7.19,-0.78,-2.13,3.38,2.33,5.16,4.4,4.13,8.62,12.66,-4.78,5.4,-0.03,3.59,2.57,0.61,-10.25,-4.15,2.34
-6.2,-0.15,-5.68,-0.31,-1.77,2.36,2.28,2.67,3.84,1.64,6.71,6.91,-1.45,6.99,1.81,4.97,1.96,-2.62,-6.16,-4.04,1.18
-5.77,-6.19,-3.72,-2.64,1.44,0.23,5.01,2.91,7.23,2.78,4.74,6.98,-0.89,2.44,5.73,0.37,5.16,-2.38,-6.37,-4.11,2.15
-1.62,-7.35,-1.1,-3.75,1.93,-1.81,5.96,1.13,7.45,1.78,7.29,4.62,5.87,-2.22,6.13,-2.79,7.45,-5.66,-2.85,-3.64,3.04
-0.9,-7.46,0.01,-1.59,3.31,-1.98,6.04,0.07,5.69,-0.15,7.65,3.2,4.34,-2.86,5.26,-1.67,5.8,-7.08,-2.07,-0.94,2.78
0.69,-5.38,1.02,-1.36,3.49,-2.77,4.76,-0.96,4.01,0.19,7.84,4.93,4.12,0.61,5.33,-1.49,3.77,-5.44,-0.4,-0.59,1.87
-3.09,-6.44,-0.46,-1.56,2.99,-1.95,3.25,-0.4,1.49,-0.84,7.26,4.4,1.13,-0.51,2.49,-2.98,2.8,-6.58,-2.77,0.35,1.04
-3.75,-6.92,-0.19,-2.13,3.55,-1.78,3.02,0.25,1.35,-0.33,10.19,3.65,1.11,-1.68,2.51,0.1,2.41,-4.32,-2.98,-0.26,0.35
-2.75,-3.84,0.36,-0.73,3.27,-1.68,1.81,-2.17,-0.2,-1.7,10.23,2.66,3.04,1.81,3.77,2.0,1.51,-3.15,-2.81,-2.48,-1.0
-0.96,-5.18,0.57,-0.43,4.53,-3.93,2.27,-5.12,-0.77,-4.49,7.21,3.33,4.4,1.21,6.41,-1.72,1.01,-8.06,-1.24,-1.94,-3.04
-1.51,-4.3,1.36,1.12,4.04,-2.9,1.23,-8.33,-2.94,-7.21,4.37,2.84,0.68,1.74,3.37,-0.61,-0.88,-9.93,-1.2,-1.01,-4.77
0.94,-4.48,1.8,0.42,3.88,-3.45,1.43,-6.75,-0.55,-5.68,5.85,1.28,2.67,-1.37,1.73,-4.05,-0.75,-10.0,0.66,-1.71,-5.33
-2.0,-8.35,2.27,-1.57,3.34,-2.82,1.4,-5.99,-1.67,-4.93,3.93,-0.24,1.26,-4.42,0.77,-4.52,-0.94,-9.44,-1.35,-0.1,-4.48
-1.61,-8.87,0.28,-3.03,1.06,-1.57,-1.08,-3.98,-2.91,-3.56,3.12,-0.6,-0.5,-3.4,-1.93,-2.63,-2.71,-8.51,-1.5,-1.83,-5.02
-2.48,-7.97,-0.59,-2.31,0.65,-1.3,-3.02,-4.0,-5.68,-3.69,3.5,-0.5,0.12,-1.09,-2.72,0.13,-7.1,-7.66,-2.33,-2.6,-5.99
-1.95,-6.24,-0.72,-0.81,1.75,-1.22,-1.28,-1.98,-2.52,0.56,6.16,4.25,-1.02,-0.25,-1.33,-0.84,-5.01,-6.58,-1.24,-0.98,-2.23
-1.96,-0.66,0.1,1.02,2.08,-1.37,0.29,-0.06,1.43,5.56,5.83,3.19,0.17,1.05,2.88,2.08,-2.25,-4.47,-1.58,0.52,0.42
-2.39,-6.47,-0.47,1.45,1.33,-0.34,-0.55,-0.7,0.9,3.49,5.38,3.91,-0.57,0.36,2.77,0.52,-1.86,-4.44,-1.43,0.21,0.66
-0.98,-4.74,-0.6,0.31,0.32,-0.93,-1.73,-1.21,-0.32,1.86,9.91,9.69,0.74,1.41,2.26,0.1,-2.11,-3.7,-0.91,0.88,-0.93
1.25,-5.9,-0.44,2.62,-0.52,-0.81,-4.15,-3.72,-3.59,-2.54,8.96,6.66,2.63,-1.12,-0.61,-1.4,-3.64,-3.4,1.32,0.82,-4.94
-0.12,-6.4,0.4,0.46,0.52,-1.86,-6.02,-7.38,-7.53,-9.98,7.52,9.61,3.72,0.35,0.41,-2.26,-4.91,-8.69,-0.34,-0.52,-7.52
0.45,-4.18,0.09,1.37,2.5,-1.81,-4.13,-7.8,-5.51,-10.62,11.07,5.22,2.05,0.65,1.5,1.1,-3.2,-8.3,1.26,-1.57,-7.59
-1.22,-3.25,2.51,1.87,4.28,-3.94,-2.95,-9.73,-4.35,-11.09,9.16,4.28,4.76,2.46,4.65,-1.41,-1.9,-10.04,-0.92,-2.17,-7.06
-0.09,-5.34,2.79,0.58,3.66,-3.71,-2.73,-9.2,-3.34,-7.64,9.55,6.39,7.3,1.99,10.08,-0.06,-1.65,-7.88,-0.56,-3.74,-6.78
-1.68,-6.93,1.43,0.72,3.06,-3.54,-1.16,-8.46,-1.76,-5.58,9.87,7.54,4.75,0.23,5.6,1.72,-0.37,-6.71,-2.49,-3.3,-5.88
-3.75,-11.1,-1.39,-0.18,1.74,-3.0,-2.7,-8.2,-3.37,-7.89,10.83,5.89,4.38,-0.42,3.03,0.6,-1.05,-6.71,-3.87,-3.69,-6.9
-4.05,-10.22,-1.63,0.86,1.79,-1.29,-1.21,-3.89,-1.87,-4.33,11.55,8.64,2.77,0.44,2.2,0.49,0.61,-3.01,-3.7,-1.75,-4.5
-3.76,-10.31,-1.85,-0.77,1.52,-1.0,-1.97,-2.23,-0.61,-0.64,10.95,6.97,0.36,-1.02,0.89,-0.26,1.24,-1.75,-3.45,-1.5,-4.52
-2.84,-5.43,-0.38,-0.55,2.52,-2.34,-0.31,-0.81,2.05,2.06,11.58,8.29,3.04,2.32,1.47,-0.34,1.46,-0.3,-3.35,-1.42,-3.13
-2.38,-5.51,0.83,-0.65,1.86,-0.81,-0.99,-0.38,1.66,2.15,12.77,9.92,4.16,2.47,2.54,3.85,0.44,0.79,-2.32,-1.82,-3.51
-1.92,-3.42,0.78,0.68,0.31,-1.18,-3.2,-1.86,0.41,1.1,10.1,10.1,4.5,2.74,3.75,2.66,-2.14,-2.44,-2.79,-2.02,-3.24
-4.14,-7.73,-1.28,-0.32,-1.5,1.33,-2.48,-0.1,0.22,1.38,8.54,4.19,1.44,0.76,-0.26,3.45,-2.14,-3.97,-3.25,-1.47,-2.11
-3.21,-7.24,-2.11,1.37,-2.76,1.0,-3.62,0.55,-0.16,1.3,8.01,8.04,-0.88,2.6,-2.58,1.59,-5.13,-2.73,-2.91,-1.98,-3.03
-0.68,-3.61,-0.24,1.43,-1.9,1.74,-3.96,1.59,-0.6,3.55,8.01,9.82,-0.52,2.6,-4.81,3.97,-5.62,-0.39,-0.34,-0.7,-2.45
-2.54,-6.02,-0.85,0.65,-1.87,1.36,-2.88,3.17,3.28,8.79,8.81,9.82,-1.67,2.88,-4.08,5.86,-2.93,3.88,-2.57,-2.08,-1.53
0.52,-2.7,0.5,2.23,-0.75,0.96,-1.76,3.63,7.23,11.22,11.5,11.9,0.66,6.85,-1.17,5.54,0.68,7.48,1.06,-2.18,0.03
0.73,-4.51,0.84,1.69,-0.31,0.5,-2.31,2.69,6.92,10.24,10.35,14.69,2.27,6.04,0.41,5.91,1.83,7.25,0.3,-2.23,-2.55
2.27,-4.41,2.11,2.3,0.47,-1.37,-1.4,-0.05,5.64,7.96,10.3,10.06,3.57,5.16,-0.27,3.0,2.26,4.22,2.07,-2.42,-3.96
0.82,-6.71,2.96,1.51,2.34,-2.58,-1.01,-3.29,3.16,4.96,8.54,7.45,4.01,3.21,2.48,0.99,1.06,-0.0,0.08,-2.97,-4.82
-0.19,-6.14,3.38,0.2,4.37,-3.97,-0.27,-5.58,1.53,1.43,7.76,7.73,5.73,2.55,7.49,1.74,2.86,-3.01,-0.13,-3.96,-6.18
-0.46,-5.94,3.64,0.08,5.49,-4.06,0.22,-6.07,0.75,1.77,10.15,5.93,6.38,2.75,8.22,-0.34,3.72,-2.71,-0.6,-4.3,-6.83
1.68,-4.31,4.48,1.05,4.19,-3.27,-0.92,-4.56,-0.1,2.72,12.88,12.07,8.34,2.23,8.09,0.47,2.84,-1.3,1.81,-4.93,-6.96
0.65,-5.69,2.47,0.78,3.36,-2.46,-0.74,-2.52,1.07,1.86,10.61,6.35,5.68,0.8,4.92,5.43,1.92,-0.21,0.61,-3.98,-6.03
-0.7,-8.59,2.09,-1.28,3.03,-3.17,0.24,-1.51,1.73,2.73,8.11,3.81,3.05,-0.74,-1.27,3.03,0.38,0.74,-0.41,-3.01,-3.59
-0.91,-10.07,2.2,-1.62,3.48,-4.2,1.0,-1.24,2.81,3.19,5.95,1.44,4.82,-3.13,3.1,-1.21,1.14,-1.25,-1.16,-2.7,-1.33
1.14,-9.21,2.96,-1.25,3.99,-4.24,2.0,-1.26,3.06,3.31,5.07,0.07,7.76,-3.23,6.72,0.07,2.48,-1.24,1.03,-3.22,-1.34
-2.02,-9.2,0.63,-3.29,3.35,-3.2,1.74,0.0,3.25,6.09,2.87,2.58,3.63,-4.3,3.59,-1.23,2.29,-0.35,-2.27,-3.14,-0.25
-0.57,-10.04,-0.38,-2.92,2.04,-2.6,-0.27,-0.64,-0.57,2.27,3.78,2.37,3.58,-4.89,1.62,-0.01,-0.39,-1.86,-1.13,-2.05,-2.4
-2.83,-9.92,0.59,-2.99,2.85,-2.6,-2.02,-2.56,-3.71,-0.69,6.79,2.7,3.65,-6.05,1.53,1.23,-1.56,-2.4,-2.47,-0.76,-3.29
1.0,-5.2,2.28,-1.18,3.15,-2.14,-2.88,-3.82,-3.98,-3.51,6.18,4.2,4.89,-3.66,0.33,-1.53,-2.12,-4.4,1.0,-0.53,-4.49
2.23,-4.62,3.3,0.2,3.3,-3.0,-3.81,-7.75,-6.13,-7.76,7.38,3.13,6.54,-3.6,2.33,-1.37,-1.1,-6.71,2.71,-2.42,-8.2
3.09,-3.02,5.64,0.86,4.44,-4.83,-3.64,-12.1,-6.14,-11.87,3.64,0.86,8.5,-4.47,6.36,-3.28,-0.15,-11.77,4.34,-4.43,-10.5
2.52,-5.02,5.07,0.88,4.07,-5.1,-2.39,-11.2,-2.03,-8.41,6.39,0.83,9.73,-5.88,7.35,-1.2,2.77,-9.46,2.85,-4.97,-8.18
1.34,-7.2,5.11,-2.04,5.2,-6.13,2.68,-10.17,2.21,-4.76,8.07,-0.2,9.97,-5.82,7.94,-5.77,7.0,-7.72,2.03,-4.15,-5.32
0.5,-7.07,5.03,-1.86,7.14,-7.0,4.99,-7.84,4.88,-1.36,8.85,3.35,11.19,-3.77,8.12,-4.38,9.55,-4.44,1.41,-4.38,-2.67
1.72,-7.11,4.37,-1.92,6.65,-7.22,6.37,-6.27,6.77,1.3,6.59,0.51,10.57,-4.76,10.58,-5.11,10.43,-2.19,1.56,-4.5,-2.0
-0.13,-8.14,3.04,-2.23,5.85,-6.16,4.9,-4.25,5.85,1.41,6.11,-0.02,6.74,-5.38,5.66,-3.92,9.83,-1.43,0.41,-5.1,-1.42
0.95,-6.17,3.13,-1.54,5.45,-5.58,4.72,-3.3,4.87,-0.44,6.53,1.6,7.43,-5.69,8.93,-2.03,9.69,-2.29,0.98,-4.89,-1.59
0.46,-4.41,3.24,-0.56,4.26,-4.03,2.92,-2.49,3.47,-0.53,9.9,1.15,7.75,-3.18,8.67,-0.26,8.26,-2.2,0.36,-5.42,-2.44
-0.55,-5.26,2.28,-0.06,2.75,-2.44,3.86,-0.84,4.68,0.75,5.14,0.72,4.09,-3.97,7.47,-0.73,7.34,-1.81,-0.64,-3.85,-0.57
-1.95,-5.71,1.17,2.1,1.45,-0.07,2.39,-0.56,3.25,1.27,4.97,0.31,2.72,-1.12,3.72,0.92,4.65,0.08,-1.68,-2.31,-0.9
-3.18,-7.17,-2.23,2.78,-1.46,0.92,-0.99,-0.53,0.38,-0.53,1.93,-0.16,-1.15,-1.14,-1.56,3.57,0.54,1.22,-2.76,-1.38,-2.02
-1.13,-5.14,-2.41,5.17,-2.78,2.64,-2.93,0.04,-1.81,-0.96,0.22,-0.62,-2.73,0.38,-5.6,3.39,-1.88,1.47,-0.21,-0.26,-2.62
0.82,-3.82,-3.39,5.77,-3.66,3.02,-4.45,-0.18,-3.71,-2.35,0.63,3.45,-2.87,0.45,-6.89,4.58,-4.72,1.6,1.6,0.21,-2.89
-0.4,-2.68,-5.67,5.08,-4.0,4.44,-4.18,2.54,-3.18,-0.72,3.38,3.8,-4.65,4.28,-6.94,7.07,-4.92,4.54,-0.01,0.57,-1.43
-1.56,-5.53,-4.44,5.09,-4.52,3.68,-5.09,0.22,-2.38,-0.29,-2.66,1.4,-4.04,1.66,-3.57,5.87,-4.63,2.71,-0.79,-0.17,-2.85
-1.31,-5.8,-4.62,3.75,-4.09,3.18,-5.76,-1.12,-1.59,-0.3,-4.39,0.0,-3.56,-0.44,-4.65,5.25,-4.15,0.27,-1.28,0.48,-3.87
-2.64,-8.54,-5.91,3.21,-3.72,2.96,-5.5,-1.31,-2.5,0.17,-4.75,-3.27,-6.2,-1.06,-8.28,4.12,-4.89,0.85,-2.37,0.4,-3.28
-1.49,-8.27,-4.86,3.21,-1.79,1.63,-5.28,-2.32,-2.83,-0.82,-7.74,-1.5,-2.68,-1.53,-7.3,-0.5,-3.43,-1.3,-2.41,-0.47,-4.49
1.41,-1.36,-5.36,4.48,-1.51,0.9,-4.13,-3.21,-1.18,-0.93,-5.28,0.05,-4.05,4.93,-6.96,1.53,-2.54,-1.64,1.24,-0.68,-3.49
6.7,8.35,-2.87,5.86,0.52,0.21,-1.24,-1.49,2.33,2.31,-4.06,0.24,0.06,6.66,-4.97,2.19,-0.16,1.71,5.74,-0.76,-2.11
10.09,11.87,-0.7,6.49,-0.46,-0.27,0.21,-0.96,4.5,4.73,0.59,-2.04,1.54,5.68,-2.43,2.01,1.27,2.4,8.74,0.4,0.01
16.13,20.03,1.58,8.02,-0.31,-1.08,0.98,-0.9,5.45,5.77,-2.23,-3.91,8.21,7.88,-0.57,1.93,1.06,-0.27,12.91,-1.31,-0.59
21.38,27.14,2.1,8.3,0.15,-1.79,1.19,-2.56,2.69,3.13,-7.11,-13.46,7.72,1.04,-1.82,-2.05,-0.49,-3.62,16.0,-0.08,-0.11
27.21,35.14,3.84,11.26,0.5,-1.01,-1.46,-4.28,-2.22,-1.32,-10.83,-15.08,12.62,11.99,0.67,-3.52,-2.47,-5.55,20.9,-1.93,-2.32
29.79,51.06,2.3,16.61,-2.15,1.79,-5.18,-3.25,-3.78,-1.2,-11.57,-7.75,9.56,25.6,0.09,3.2,-4.43,-2.8,23.02,-3.74,-3.86
46.78,69.58,9.46,21.89,-1.73,2.21,-6.6,-3.67,-5.01,-0.98,-9.43,-12.56,19.98,29.0,-0.27,3.26,-6.45,-3.83,36.78,-3.7,-5.34
57.45,93.7,12.57,27.78,-3.23,3.16,-8.38,-4.38,-6.7,-3.25,-10.8,-11.69,24.29,42.37,0.19,4.82,-8.38,-3.38,45.77,-1.56,-4.71
65.84,107.21,15.22,27.96,-4.14,3.2,-10.38,-4.41,-9.35,-5.14,-10.43,-14.04,28.4,41.84,-1.09,3.76,-10.43,-5.95,51.5,-2.26,-6.02
77.11,125.83,18.79,30.49,-2.89,1.98,-12.13,-9.09,-16.12,-14.18,-20.02,-23.55,33.06,43.22,-1.41,0.39,-14.23,-14.12,61.33,-1.76,-8.85
81.18,142.22,20.4,33.72,-1.32,1.44,-13.96,-12.54,-20.61,-20.22,-24.53,-26.64,32.1,50.58,-0.06,-1.87,-17.87,-17.66,64.98,-2.6,-11.43
88.43,144.52,22.34,36.75,-1.8,1.98,-14.72,-11.32,-20.64,-19.86,-23.14,-26.85,33.87,51.84,-1.28,-3.72,-18.08,-18.59,71.01,-1.85,-12.62
98.95,168.98,23.3,42.03,-3.41,1.16,-16.05,-15.78,-22.93,-23.72,-31.22,-29.09,32.65,57.3,-2.85,-4.46,-19.94,-22.43,78.85,-1.53,-14.52
103.21,181.77,24.05,45.16,-2.7,0.79,-14.16,-17.64,-22.26,-24.02,-27.63,-31.84,34.27,67.68,-2.95,-2.72,-18.29,-22.51,82.58,-0.72,-14.73
109.95,193.23,25.3,48.86,-2.64,2.14,-14.93,-17.68,-23.84,-24.24,-31.85,-25.61,33.32,74.04,-6.04,0.46,-19.58,-22.15,88.08,-0.83,-15.06
110.15,196.82,27.04,48.76,-1.45,0.07,-16.13,-19.54,-25.97,-25.8,-28.5,-28.89,39.82,75.67,-2.65,-1.31,-20.28,-24.09,88.37,-3.29,-16.83
110.22,193.32,29.4,47.27,2.22,-2.5,-12.85,-19.7,-23.47,-24.93,-25.86,-27.65,44.53,73.73,0.88,-3.16,-17.72,-25.14,88.54,-3.64,-16.27
-6.4,-8.18,-2.45,-3.02,0.4,-1.52,1.3,-1.63,0.77,-1.03,5.24,1.86,-0.85,-7.61,5.95,-1.21,5.76,-2.29,-4.57,-1.52,0.86
-7.48,-8.27,-1.68,-4.39,2.17,-1.28,4.18,2.41,4.51,3.14,7.11,1.34,-1.09,-5.36,1.32,0.31,7.09,0.15,-6.15,0.61,4.65
-8.5,-10.67,-2.8,-4.64,0.37,-0.45,2.28,2.86,2.85,3.72,3.14,1.89,-4.27,-6.76,-2.09,-1.17,1.84,-0.26,-7.21,0.29,4.46
-8.05,-10.75,-1.35,-5.7,0.81,-0.86,3.82,2.73,5.69,7.35,3.33,1.07,-2.19,-8.44,-0.33,-6.89,3.88,-0.54,-7.29,-0.52,5.28
-5.95,-7.73,-1.04,-4.9,0.2,-0.37,3.73,4.58,6.3,8.17,5.26,1.09,-3.5,-7.89,-3.18,-0.5,3.19,3.5,-5.35,-0.83,5.32
-4.22,-6.28,0.94,-2.9,1.72,-2.46,3.92,0.99,7.02,6.4,10.83,5.99,1.92,-3.14,5.89,1.65,5.65,1.66,-3.31,-1.8,5.01
-5.73,-9.79,0.38,-4.79,2.59,-3.75,3.0,-0.17,4.61,4.91,7.33,2.17,3.34,-5.37,16.08,0.17,5.11,1.22,-4.7,-3.17,2.85
-7.26,-8.28,0.39,-4.49,3.34,-2.32,3.69,2.49,5.63,7.16,8.95,6.63,-0.26,-3.51,4.59,4.59,4.49,4.54,-6.19,-1.5,5.4
-4.75,-8.77,0.06,-3.76,2.05,-2.0,3.21,3.73,4.25,7.18,5.4,4.78,2.43,-3.94,8.83,0.32,3.58,4.33,-3.84,-1.69,5.16
-3.8,-4.42,-1.01,0.16,-1.04,1.01,0.56,4.41,3.47,8.66,9.49,6.05,1.54,-1.88,-3.04,2.49,0.71,5.26,-3.04,-2.99,4.23
-0.23,-1.03,-0.33,0.01,-0.0,-0.64,2.97,5.72,6.42,11.12,12.61,11.46,2.98,2.6,-0.22,5.09,5.19,7.9,-0.23,-3.13,5.08
-0.47,1.89,-0.25,1.33,-0.6,1.09,1.63,3.13,4.65,7.93,14.35,12.02,3.67,2.51,6.55,9.16,4.75,4.52,-0.84,-3.43,3.05
0.02,1.78,0.16,3.12,-0.81,0.65,0.58,0.83,1.29,4.16,14.82,10.55,4.6,6.21,5.02,8.15,5.05,2.24,0.1,-3.34,0.36
-0.69,-0.73,-0.33,0.13,-0.16,0.58,0.89,-0.97,0.93,1.87,8.66,8.91,3.41,1.75,4.3,6.9,3.21,0.73,-0.4,-2.75,-0.68
0.93,2.02,-0.68,3.66,-0.69,1.66,0.12,-1.66,0.73,1.18,10.75,9.13,3.18,4.76,2.93,7.32,2.5,0.26,0.32,-1.9,-1.13
0.31,1.68,-1.68,4.39,-2.53,2.29,-0.97,-2.26,-0.34,-0.12,9.6,7.08,3.8,4.33,3.35,4.75,0.82,0.44,0.29,-3.67,-1.9
1.9,3.27,0.35,4.01,-1.95,1.57,-1.17,-1.12,0.66,2.39,9.8,14.5,6.79,6.01,6.96,11.7,2.43,2.79,1.57,-4.38,-2.97
-0.8,-1.17,0.99,0.16,0.04,-0.25,-0.12,-1.86,0.67,2.7,10.54,13.17,4.99,4.07,6.64,9.08,3.33,2.97,-0.72,-4.75,-1.86
-4.4,-5.09,-0.97,-3.7,0.1,-1.34,-0.93,-2.12,-1.62,2.37,1.04,3.0,2.01,-0.9,8.39,5.81,1.19,2.19,-4.22,-6.88,-2.62
-4.24,-6.41,-0.86,-2.43,2.06,-1.89,-0.4,-1.83,-1.64,2.11,1.14,0.65,0.93,1.21,3.3,1.96,1.03,0.93,-4.14,-4.76,-2.19
-4.09,-5.1,-3.48,-0.94,-1.14,-0.27,-2.91,-1.83,-4.01,0.83,-1.91,1.57,-2.59,-0.41,-3.79,3.54,-3.74,-0.15,-4.01,-3.56,-3.42
-4.56,-5.72,-4.5,0.3,-2.4,1.76,-2.85,-0.41,-3.05,0.32,-5.49,-2.89,-5.35,0.5,-8.42,2.05,-5.17,-0.26,-3.47,-3.17,-2.16
-5.61,-8.28,-7.53,-0.13,-5.74,4.84,-2.95,0.38,-2.12,0.18,-6.42,-0.76,-9.98,-4.82,-9.14,3.82,-4.17,-0.85,-5.41,-3.12,-1.89
-3.96,-5.07,-2.81,-0.99,-1.07,0.63,1.78,3.13,2.77,4.24,-0.7,5.03,-2.07,2.44,-1.62,8.93,-0.39,4.72,-3.14,-0.28,3.1
-4.78,-8.03,-4.24,-3.92,0.95,-0.36,2.35,1.99,2.71,3.16,-0.6,3.62,-1.69,-2.71,5.79,0.58,1.93,2.87,-4.79,-1.85,2.98
-4.8,-7.91,-3.78,-3.5,0.68,-1.31,2.15,3.55,0.97,2.28,0.27,0.32,-0.35,-1.61,-2.03,2.49,0.56,3.55,-4.76,-0.72,2.81
-4.77,-7.9,-3.57,-3.43,-0.11,-0.89,0.24,2.14,-1.66,0.18,-3.45,2.97,-2.53,-2.1,3.12,4.35,-1.09,3.68,-4.5,-1.28,0.78
-4.75,-8.13,-4.16,-2.44,-2.11,0.98,-1.62,1.14,-4.02,-2.5,-3.6,-0.63,-3.46,-4.81,-3.59,3.95,-2.4,2.24,-3.56,-2.32,-1.5
-3.2,-5.02,-3.34,0.72,-2.49,2.11,-2.08,1.69,-3.46,-0.97,0.7,3.21,-3.39,-0.85,-7.83,4.05,-1.97,2.85,-2.52,-1.19,-2.22
-3.52,-5.68,-4.4,0.77,-3.34,2.84,-3.29,1.33,-4.1,-0.92,-1.77,-0.13,-2.17,-1.75,-4.4,4.31,-4.02,1.04,-3.01,-2.11,-2.29
-0.55,-3.36,-3.16,2.09,-0.11,-0.52,0.32,0.38,-1.62,-0.15,0.75,1.27,0.15,0.67,4.55,2.79,2.0,0.17,-0.75,-1.3,-0.45
-1.71,-3.83,-4.0,0.98,-1.84,0.36,-2.07,-1.67,-3.12,-2.21,-0.21,0.05,3.26,-1.78,4.92,-0.81,-1.07,-2.08,-2.22,-1.6,-2.55
4.01,2.67,1.44,3.91,0.11,-0.57,-1.25,-2.99,-4.14,-1.73,3.42,4.64,8.48,5.93,4.74,6.26,-1.0,-0.62,3.61,0.13,-2.54
3.66,3.69,0.29,4.83,-0.11,0.97,-3.6,-3.58,-6.25,-4.8,2.94,4.06,3.74,4.19,3.17,1.54,-2.19,-1.14,3.08,0.64,-3.88
3.14,2.83,0.48,3.07,-0.14,0.47,-3.86,-4.74,-7.46,-7.47,0.36,2.45,4.04,4.16,-3.95,3.3,-5.87,-3.23,2.65,0.3,-5.34
-1.42,-1.52,-3.07,1.87,-2.46,1.45,-3.76,-2.04,-6.84,-5.57,-3.74,-3.71,-1.9,-2.72,-5.87,3.69,-6.3,-1.93,-1.4,-1.73,-3.87
2.2,2.64,0.52,1.78,1.32,-2.03,0.7,0.19,-1.4,0.41,-0.83,1.08,3.96,0.8,1.9,3.14,-1.97,2.11,1.33,-1.07,-0.17
0.78,0.17,0.37,4.03,0.34,-0.79,-0.55,-1.73,-3.08,0.39,-1.11,-5.66,4.15,1.87,-0.43,-3.82,-4.28,0.22,0.53,-1.83,-1.88
2.23,1.51,1.37,0.97,0.86,-0.89,-1.46,-0.82,-3.31,0.8,2.86,3.67,4.72,-0.25,1.35,-2.09,-2.58,1.28,1.04,-2.42,-2.33
3.88,0.98,3.04,3.74,0.94,-1.65,-3.88,-5.42,-4.4,-3.31,-0.54,1.26,5.73,0.34,2.57,2.2,-4.47,-5.09,3.16,-1.53,-4.14
6.12,3.55,2.93,4.74,-0.32,-0.23,-5.52,-4.72,-6.62,-1.89,1.73,2.56,4.65,3.74,-1.49,1.24,-8.54,-3.24,5.4,0.11,-4.18
4.82,2.72,2.59,1.78,-0.69,-0.01,-3.89,-0.91,-4.22,0.59,2.1,2.88,5.21,-0.6,3.35,2.72,-6.69,-1.53,4.95,0.21,-1.9
6.5,5.5,4.98,3.14,0.68,-1.87,-1.79,1.36,0.41,4.83,4.55,5.53,7.07,1.89,2.45,0.13,-5.17,1.92,6.38,4.14,1.74
4.9,3.9,4.87,0.49,0.84,-1.07,-1.92,0.99,-1.53,3.39,4.4,1.49,4.18,-2.66,-3.21,-2.41,-7.55,0.19,5.45,4.69,1.46
0.18,-5.77,2.55,-4.54,0.91,-2.13,-3.32,-0.95,-1.98,-0.16,-2.62,-1.85,-0.45,-11.1,3.42,-6.86,-10.32,-3.46,-0.35,3.94,1.12
-0.26,-6.52,1.28,-1.49,-0.09,-0.86,-4.42,-2.76,-2.19,-1.46,-5.46,-4.03,-2.58,-9.65,-10.56,-5.18,-9.76,-3.86,-0.24,4.8,-0.97
4.85,-0.11,2.44,3.03,-1.02,1.07,-4.12,-2.57,-0.96,0.16,1.37,1.52,1.01,-2.5,-5.82,-1.35,-5.5,-2.48,4.26,4.98,-0.9
-0.29,-2.79,-1.79,3.05,-2.21,2.84,-2.0,-0.17,1.67,1.67,-1.05,0.64,-5.07,-1.43,-9.57,-3.13,-3.3,-1.44,-0.1,4.4,0.5
-7.92,-14.68,-6.55,-0.64,-4.14,5.87,-0.53,3.64,4.55,4.03,-3.6,-3.7,-12.81,-10.21,-10.32,-1.42,-1.14,1.5,-6.75,3.15,1.9
2.64,-4.0,0.83,-1.76,-0.69,0.43,1.12,2.11,4.07,2.26,3.76,-0.81,3.44,-4.9,0.87,-2.0,2.63,-1.47,2.0,2.07,1.14
4.44,1.96,1.97,-0.91,0.03,-1.04,-0.73,-1.76,-0.77,-1.96,2.39,-5.21,4.78,-4.49,4.2,-3.72,-0.9,-3.2,3.3,0.61,-2.74
7.31,5.73,4.34,1.08,-0.71,-0.22,-3.47,-4.91,-5.17,-7.83,-7.91,-8.15,7.88,0.62,2.17,-3.9,-2.46,-5.2,5.32,-0.04,-6.33
12.57,16.21,5.82,4.34,-0.3,0.57,-4.45,-5.87,-6.87,-10.76,-2.16,-7.94,7.28,5.5,-0.03,-2.25,-2.13,-7.1,9.95,2.03,-7.59
11.49,15.52,4.51,6.78,-1.83,2.48,-6.95,-6.43,-9.39,-13.32,-6.87,-7.9,3.06,6.06,-5.52,-0.29,-4.91,-6.5,9.69,1.82,-9.6
7.4,9.65,1.6,4.96,-4.07,4.55,-7.5,-4.15,-8.56,-13.44,-9.26,-8.59,-1.64,0.74,-8.74,2.49,-4.34,-2.03,5.63,1.33,-10.32
5.31,8.05,-0.24,6.45,-4.89,5.92,-8.71,-2.03,-11.55,-10.67,-9.12,-11.88,-4.11,2.07,-10.48,3.49,-6.39,0.41,4.71,2.32,-10.41
7.32,9.55,-0.05,7.28,-4.01,3.86,-7.17,-2.09,-8.53,-9.66,-9.51,-7.23,-2.18,1.06,-8.54,-3.4,-4.92,0.55,6.08,2.65,-9.48
6.25,8.05,-0.2,5.75,-3.92,3.42,-5.93,-2.91,-7.44,-8.08,-8.67,-7.41,-2.86,0.24,-6.2,-1.66,-4.7,-1.25,4.83,1.19,-8.24
6.95,9.18,-0.48,7.14,-4.0,4.16,-4.1,-1.7,-4.49,-5.27,-3.42,-4.99,-3.55,1.59,-6.96,-0.85,-3.9,-1.42,5.42,0.29,-6.82
6.38,9.96,-0.74,5.02,-4.86,4.47,-4.44,-0.6,-3.26,-2.86,-3.25,-4.43,-0.69,0.28,-3.62,-3.31,-3.75,-1.22,5.11,-1.9,-6.98
5.72,8.22,-0.76,2.65,-2.16,2.08,0.82,3.08,3.23,4.21,0.04,1.26,1.26,3.03,2.21,6.08,1.84,5.96,3.87,-1.34,-2.35
2.39,4.49,-1.78,1.72,-1.29,1.4,0.13,2.11,1.24,2.55,0.35,2.5,-0.34,1.02,0.48,4.25,0.86,6.05,1.25,-1.69,-2.88
3.86,5.81,-0.31,-0.29,-0.32,0.15,-0.03,0.1,0.29,-0.22,-1.46,-0.81,3.71,-0.07,4.72,2.4,1.28,4.07,1.5,-2.64,-3.14
2.64,2.75,-0.1,-0.15,1.62,0.11,3.06,2.63,4.37,3.77,4.77,4.21,1.48,-3.47,-5.06,2.07,4.95,5.2,1.29,-1.4,-0.0
2.63,5.25,0.18,-0.12,0.25,-0.34,4.31,2.34,6.03,5.29,5.16,2.42,4.45,-0.2,-1.59,3.95,8.13,5.04,1.03,-4.67,-0.4
0.27,0.61,-3.22,-0.46,-1.64,0.69,5.12,5.08,7.97,8.05,-0.66,1.12,-1.95,-2.3,-3.23,1.39,6.86,6.21,-1.57,-4.5,2.05
-2.33,-2.3,-3.87,-1.04,-1.79,1.57,5.75,7.0,8.57,8.86,-2.99,-0.49,-2.33,-0.99,-2.38,5.96,6.48,8.65,-3.27,-4.1,3.09
-0.14,3.35,-2.69,-0.21,-0.74,0.44,5.48,4.92,6.18,5.37,-2.5,-1.26,-0.69,4.03,-1.25,4.92,4.09,7.23,-2.41,-5.53,1.82
-1.78,0.78,-4.11,-0.51,-0.9,0.36,3.45,3.29,1.92,2.75,-2.78,-4.08,-2.62,0.9,-4.02,3.42,2.27,7.04,-3.22,-5.75,-1.0
-1.78,2.01,-2.11,-1.3,-0.15,1.87,4.22,4.21,2.59,3.32,-5.79,-3.49,-0.19,0.38,-5.92,3.52,2.59,8.23,-1.62,-4.69,-0.04
-2.36,-0.97,-2.85,-1.55,0.83,-0.29,4.3,5.28,3.76,5.65,-5.36,-1.19,-3.24,0.47,-3.47,3.98,4.23,9.69,-2.54,-3.09,0.15
-0.18,1.14,-0.98,-1.94,1.62,-0.66,3.0,4.95,1.33,2.13,-5.37,-0.74,0.02,-0.24,1.59,0.15,3.75,10.59,-0.73,-3.58,0.25
1.27,3.32,0.11,0.19,1.37,-1.33,0.78,2.12,-1.23,-1.45,-2.46,-2.15,1.21,0.72,3.11,8.61,3.43,7.36,-0.14,-3.87,-2.27
-1.54,1.9,-2.68,-0.13,-0.32,0.97,0.5,-0.42,-3.64,-5.14,-5.61,-2.27,-1.96,0.72,-1.09,4.97,3.06,3.3,-2.21,-4.28,-4.08
-1.84,1.31,-3.82,-0.35,-1.49,0.26,-0.21,-1.98,-5.0,-8.24,-3.18,-4.53,-1.67,1.25,1.28,5.53,0.98,1.09,-3.37,-5.51,-5.34
-3.58,-0.6,-3.05,-1.8,-1.12,0.18,0.45,-2.26,-2.24,-6.0,-4.73,-2.16,-2.1,-1.59,-3.51,6.21,0.05,1.11,-3.75,-3.94,-3.33
-2.33,-2.2,-3.53,-0.81,-0.74,0.72,1.03,-2.08,-1.49,-5.12,-9.56,-7.03,-4.95,-3.28,-4.61,1.35,-0.5,-1.65,-2.8,-1.99,-2.42
-1.98,-0.48,-3.73,0.98,-1.68,2.25,0.73,-2.53,-1.17,-5.99,-6.68,-7.89,-6.18,-1.27,-6.59,0.71,-0.85,-2.31,-1.84,-1.13,-1.66
-3.56,-2.75,-5.9,0.49,-1.96,1.25,0.73,-2.72,-0.71,-4.73,-8.94,-8.79,-6.96,-3.87,-9.49,2.72,-1.82,-4.63,-3.24,0.38,-1.36
-3.91,-2.44,-6.58,2.7,-1.92,2.27,0.96,-3.2,-1.56,-6.48,-8.55,-8.71,-10.91,-1.15,-10.08,0.48,-2.32,-7.04,-3.64,2.35,-1.16
-3.14,-3.68,-6.48,0.77,-3.51,2.27,-3.25,-3.85,-6.4,-8.42,-14.21,-13.12,-10.27,-4.05,-10.71,-1.95,-8.18,-7.64,-3.47,0.94,-3.03
-6.02,-8.87,-6.45,-2.07,-1.69,2.66,-1.01,-3.31,-6.2,-9.31,-16.18,-14.41,-13.33,-9.51,-6.48,-2.95,-7.33,-7.77,-6.36,0.71,-2.25
-2.08,-7.2,-2.49,-3.08,1.27,-1.18,0.57,-4.42,-5.62,-8.22,-19.26,-10.88,-6.82,-9.99,2.21,-1.86,-4.81,-9.17,-3.52,1.9,-0.83
-3.47,-6.94,-3.12,-2.8,-1.32,0.95,-0.85,-2.27,-5.59,-6.29,-18.36,-17.44,-9.51,-10.38,-12.22,-5.49,-8.41,-7.37,-3.8,3.34,-0.15
-2.97,-8.96,-2.1,-2.16,-0.39,-0.23,-0.36,-1.52,-6.12,-6.57,-20.01,-18.07,-8.75,-9.66,-11.6,-4.56,-8.9,-6.45,-3.18,5.46,0.48
-3.39,-7.18,-3.86,-0.21,-2.15,2.22,-1.6,-0.78,-4.74,-6.69,-21.02,-20.39,-10.28,-8.39,-21.02,-6.5,-9.41,-5.81,-3.42,5.06,-0.48
-2.98,-5.85,-1.8,-2.5,-0.52,1.72,0.83,1.07,-0.6,-2.65,-13.47,-14.1,-6.69,-6.78,-12.78,0.55,-2.29,0.07,-2.47,6.07,0.65
-5.63,-8.89,-4.92,-4.09,-1.16,2.02,0.02,0.78,-1.82,-3.51,-16.68,-14.16,-9.9,-8.23,-12.29,-0.6,-4.07,-0.21,-4.96,4.59,-0.62
-4.68,-6.91,-5.66,-5.1,-0.98,1.13,2.27,2.36,2.15,-0.36,-14.29,-10.59,-8.17,-7.57,-8.03,1.29,-0.3,2.32,-4.65,4.44,1.75
-6.47,-10.55,-5.64,-7.6,-0.6,-1.69,3.73,1.24,5.06,1.67,-14.06,-12.08,-10.05,-12.55,-8.74,-2.58,0.88,1.36,-6.27,3.87,1.36
-7.09,-10.5,-5.75,-5.72,-0.4,0.56,6.2,3.42,6.8,3.37,-16.21,-12.12,-9.52,-10.16,-8.65,-0.9,1.58,2.33,-7.04,4.23,4.27
-8.09,-13.09,-6.12,-7.63,0.07,0.15,7.94,3.53,8.98,5.5,-14.12,-11.77,-10.63,-12.94,-7.1,-0.68,2.65,2.76,-8.56,3.47,5.0
-5.26,-8.77,-4.3,-6.37,1.96,-0.44,9.74,1.77,10.1,3.92,-11.49,-8.5,-8.18,-12.41,-3.39,-4.19,6.01,0.59,-6.45,3.67,6.12
-4.26,-5.01,-3.93,-5.48,2.31,-1.8,9.87,2.06,7.72,3.2,-12.23,-8.06,-7.13,-9.84,-2.06,-5.04,5.58,-1.37,-5.52,3.59,5.63
-6.44,-6.25,-4.79,-6.64,1.93,-2.58,7.79,1.81,3.79,0.99,-17.68,-16.92,-10.32,-11.91,-5.79,-7.24,1.13,-2.0,-6.48,2.59,5.33
-4.01,-3.43,-3.04,-6.39,2.51,-3.7,10.66,1.9,8.31,2.34,-12.34,-12.66,-6.03,-10.74,-8.04,-9.66,3.95,-3.48,-4.15,2.67,7.41
-4.66,-4.29,-3.94,-6.6,2.53,-2.54,11.52,2.58,9.83,2.59,-12.35,-12.0,-6.39,-9.9,-6.27,-5.39,6.79,-2.14,-4.89,3.84,8.66
-2.3,-2.81,-3.87,-7.44,0.82,-1.6,7.83,3.19,6.87,2.46,-12.91,-13.38,-4.7,-11.17,-7.72,-5.34,1.95,-0.09,-3.67,2.13,6.91
-5.07,-6.04,-8.31,-5.59,-3.19,3.47,4.06,5.27,4.3,3.24,-14.67,-17.35,-10.9,-13.58,-11.72,-8.58,-1.55,1.69,-6.59,0.62,5.68
-0.55,2.45,-4.34,-2.98,-1.1,0.12,6.24,5.93,6.2,4.8,-12.75,-8.74,-2.28,3.24,-1.96,2.35,1.92,3.77,-2.72,1.22,6.15
-5.34,-1.73,-7.95,-6.62,-2.82,1.7,3.73,5.87,4.8,5.51,-8.87,-6.8,-5.85,-6.55,-0.27,1.78,1.26,5.68,-6.56,-1.55,3.87
-0.75,4.31,-3.02,-4.61,-0.29,-0.47,2.1,3.63,2.1,2.79,-6.02,-5.05,0.39,2.16,0.71,2.12,2.29,4.06,-1.74,-0.77,1.6
0.07,3.23,-1.82,-3.34,0.44,-0.38,2.07,1.91,2.19,2.31,-0.25,-0.8,3.88,1.61,2.42,2.37,4.13,4.63,-1.84,-1.51,0.04
1.37,8.49,-2.09,1.99,-1.7,1.22,-1.24,0.12,-3.41,-2.1,-7.68,-5.83,0.98,7.03,-1.11,2.4,0.8,3.86,-0.2,-2.69,-3.29
7.03,9.71,2.83,-1.61,0.36,-0.05,-2.56,-2.42,-5.45,-5.25,1.59,-4.0,11.78,1.2,5.83,0.85,1.72,2.37,3.49,-1.46,-5.01
9.36,20.41,1.48,2.83,-1.51,0.65,-4.19,-2.49,-7.98,-7.11,-1.05,-2.19,6.35,11.84,2.34,4.07,-1.55,2.79,6.37,-0.9,-5.26
16.43,25.28,5.01,1.63,-0.48,0.33,-7.2,-6.96,-11.65,-11.66,-4.23,-9.81,11.57,6.01,0.13,-2.17,-4.92,-3.73,11.55,-0.34,-7.04
22.49,35.1,8.59,3.96,1.62,-1.47,-5.91,-7.88,-11.38,-12.14,-3.84,-10.28,13.31,8.65,2.79,-3.21,-4.07,-4.69,17.87,1.08,-7.84
30.3,50.8,11.4,10.58,0.91,-0.88,-7.01,-9.55,-12.22,-12.6,-3.07,-3.12,18.78,24.32,6.64,1.49,-4.98,-5.45,24.26,-1.34,-9.25
42.49,71.3,16.41,13.57,2.7,-3.07,-5.16,-10.93,-10.33,-12.03,-2.99,-7.15,25.95,31.68,13.71,3.44,-3.13,-5.68,34.54,-1.57,-9.43
49.41,84.08,18.03,15.64,1.73,-1.8,-5.77,-9.27,-9.63,-11.13,-6.18,-7.97,30.23,37.12,11.08,-2.84,-1.33,-4.84,39.27,-2.43,-9.62
58.79,110.04,16.89,23.14,-0.71,0.13,-8.56,-10.46,-11.76,-12.51,-7.59,-4.14,25.61,51.69,4.05,7.81,-3.35,-5.05,47.49,-3.07,-11.41
64.78,120.31,20.58,24.64,-1.09,-0.47,-11.04,-11.73,-15.71,-15.44,-14.66,-14.98,31.16,48.61,5.05,1.76,-6.94,-7.75,52.71,-3.24,-13.71
72.79,132.79,21.6,30.5,-0.95,0.75,-10.32,-12.99,-15.27,-16.09,-14.52,-13.32,31.74,56.2,4.79,2.13,-7.06,-8.77,59.57,-3.15,-13.45
77.22,145.65,21.43,34.42,-1.73,1.68,-11.99,-14.78,-16.56,-17.9,-14.66,-14.53,30.05,60.4,1.23,2.08,-9.63,-10.82,63.98,-3.18,-14.57
84.49,158.68,22.58,37.36,-1.36,1.59,-12.05,-14.52,-17.54,-18.79,-17.15,-20.2,30.7,61.32,-0.86,0.85,-11.03,-11.69,69.08,-2.76,-14.7
81.29,154.64,21.45,35.09,-0.42,1.5,-11.89,-13.91,-17.01,-17.43,-23.42,-25.72,28.57,58.51,0.7,-5.96,-10.36,-13.0,66.63,-2.64,-13.85
90.76,168.27,24.95,37.94,-0.6,1.34,-12.95,-14.03,-18.63,-17.28,-22.75,-22.51,36.09,61.29,-1.11,-2.28,-11.77,-13.61,74.15,-3.48,-15.55
88.13,165.66,24.58,37.1,-1.89,1.89,-15.38,-15.16,-20.15,-20.63,-21.17,-26.45,35.72,61.06,2.9,-1.55,-11.87,-13.23,71.83,-5.6,-17.37
88.41,168.82,23.77,40.77,-3.35,3.77,-17.11,-16.43,-23.85,-26.21,-25.47,-27.59,32.77,68.05,-0.08,0.72,-11.8,-15.78,72.91,-4.81,-19.82
90.08,170.16,25.01,41.85,-2.52,4.25,-19.28,-17.11,-28.29,-27.98,-26.44,-30.26,32.59,66.02,0.24,-1.53,-15.49,-16.9,74.37,-3.61,-20.95
88.27,166.78,25.25,42.36,-0.83,1.67,-16.04,-14.1,-23.93,-23.0,-28.69,-24.24,30.1,64.3,-1.6,3.14,-14.76,-13.67,73.86,-0.38,-16.55
89.5,167.48,26.27,41.85,-1.24,2.6,-15.3,-14.34,-21.41,-21.53,-23.03,-24.01,35.57,65.53,1.9,1.19,-11.3,-14.34,74.45,-0.26,-16.42
84.18,158.53,24.25,38.4,-1.44,2.14,-16.0,-11.84,-19.89,-17.56,-24.97,-22.16,32.4,60.17,9.8,-2.97,-12.49,-10.14,70.46,-1.54,-15.27
82.1,156.55,21.01,38.34,-5.49,5.48,-18.16,-11.27,-18.41,-16.78,-19.32,-18.1,29.46,62.82,-3.14,1.46,-13.66,-8.73,68.17,-3.22,-16.87
75.97,147.09,18.36,36.0,-5.68,5.98,-16.6,-10.46,-18.13,-17.27,-21.62,-22.09,25.14,59.55,-1.34,1.41,-11.39,-9.67,64.11,-3.19,-15.8
70.71,135.81,19.63,33.78,-3.29,4.06,-15.29,-10.56,-18.06,-15.26,-21.2,-18.03,25.0,55.72,3.09,1.35,-12.63,-8.28,59.36,-2.99,-15.41
70.21,129.17,22.87,31.2,-0.9,1.06,-11.21,-13.13,-14.64,-16.92,-12.65,-18.37,29.86,45.48,-0.73,-2.01,-7.98,-9.78,58.34,-3.25,-14.52
64.65,120.53,23.03,28.04,2.18,-0.87,-7.9,-10.62,-12.83,-14.95,-11.41,-19.06,28.59,42.03,3.15,1.1,-6.13,-8.35,54.13,-1.15,-11.31
56.16,103.83,18.18,23.41,1.96,-1.78,-4.74,-12.07,-9.54,-16.68,-10.85,-21.53,21.19,30.99,5.89,-2.63,0.26,-13.63,46.93,-1.49,-9.98
53.79,101.73,16.63,22.85,2.58,-1.89,-7.95,-12.29,-15.06,-16.68,-8.45,-19.24,21.5,35.07,5.19,-4.62,-7.87,-12.52,44.56,-0.5,-11.22
47.53,91.54,13.95,22.6,0.87,-0.43,-6.74,-10.06,-11.98,-12.83,-8.51,-14.51,19.88,31.78,-4.77,-6.59,-4.03,-10.87,40.7,-0.12,-9.09
41.09,78.74,11.59,19.99,-0.36,1.56,-7.96,-5.44,-10.03,-8.08,-10.45,-8.02,17.08,30.26,2.8,0.88,-6.36,-3.96,34.76,-0.95,-8.37
37.73,71.88,11.82,20.47,-1.07,0.72,-7.17,-4.26,-9.78,-7.97,-12.68,-4.65,12.62,29.15,-4.91,1.82,-6.62,1.69,33.12,1.3,-8.22
36.26,68.6,14.19,18.7,0.45,0.71,-7.71,-6.91,-9.36,-12.28,-9.43,3.83,16.18,27.9,2.93,5.45,-5.19,-2.55,31.19,1.0,-9.82
31.68,57.4,11.58,16.2,-1.2,0.38,-11.03,-7.9,-16.65,-16.96,-14.52,-0.13,10.09,20.33,2.74,3.01,-11.48,-5.0,27.29,0.91,-10.98
26.25,48.95,11.29,14.83,-0.66,-0.45,-11.46,-11.16,-17.15,-18.33,-9.5,-2.66,10.91,14.96,-4.59,-1.15,-10.27,-9.87,23.09,0.75,-12.65
23.42,42.67,9.3,13.21,-1.82,1.26,-12.63,-9.08,-17.02,-15.81,-9.12,1.22,8.2,15.24,-4.68,-3.1,-13.3,-7.25,19.83,0.07,-12.1
16.48,35.43,5.66,9.84,-3.69,3.26,-10.4,-3.75,-13.33,-9.66,-4.63,3.9,4.86,9.43,-6.72,-2.84,-9.85,-2.11,14.37,-0.11,-9.92
14.98,31.39,7.55,9.9,-0.95,1.01,-5.02,-2.58,-5.09,-2.77,4.3,10.01,8.5,12.68,2.14,11.54,-3.34,0.3,13.21,0.43,-5.08
10.94,26.94,5.62,8.76,0.29,0.53,-4.0,-3.73,-2.42,-3.28,6.74,6.73,6.99,13.85,8.07,3.35,0.64,1.55,10.27,-0.0,-5.63
7.16,18.82,6.42,7.4,1.76,-0.45,-2.92,-3.1,-1.32,-1.21,4.51,6.48,8.63,10.26,11.83,1.83,2.83,1.98,6.74,-0.14,-3.93
0.37,5.46,2.79,2.37,0.39,-0.77,-2.54,-2.68,-1.58,-1.6,3.7,1.8,3.84,-1.47,4.19,2.63,5.01,2.32,0.33,-1.13,-4.81
-2.5,1.51,1.91,1.5,-0.5,1.34,-3.16,-3.29,-3.15,-5.03,4.28,3.46,3.47,4.46,1.45,-2.01,5.27,0.88,-1.53,-0.45,-5.79
-2.38,1.7,1.14,1.75,-0.93,1.33,-3.14,-3.73,-3.04,-7.13,11.33,8.65,5.11,4.32,5.55,2.06,7.04,0.13,-2.35,-1.03,-5.79
-6.1,-1.59,-0.04,-1.93,-0.51,1.05,-2.07,-3.0,-1.3,-4.82,11.31,8.77,4.9,7.35,8.81,7.32,8.07,3.68,-5.2,-1.42,-4.53
-6.94,-3.66,0.87,-2.42,1.43,-0.56,-1.11,-2.13,1.37,-0.46,14.35,13.1,6.37,6.4,16.47,8.51,8.67,7.63,-6.75,-1.39,-1.82
-7.94,-8.73,2.4,-3.03,1.61,-1.91,0.55,-1.3,4.13,1.5,14.48,15.28,7.38,3.95,10.65,7.59,11.52,9.45,-7.23,-1.39,-1.85
-11.45,-11.87,0.28,-5.19,-0.72,1.36,-1.76,-1.32,-0.62,0.27,8.77,11.86,4.77,-2.17,8.32,7.45,6.07,9.18,-10.39,-3.0,-3.28
-11.31,-14.16,1.51,-3.34,-0.13,0.89,-0.08,0.92,2.44,2.31,13.33,14.8,3.83,-1.34,2.0,8.62,4.96,10.48,-9.44,-0.7,-0.34
-16.45,-22.14,-0.3,-5.51,-1.9,2.08,-1.79,2.31,-0.25,0.65,5.21,7.33,1.37,-6.13,-0.44,4.99,0.17,10.76,-13.18,-0.25,-1.16
-18.28,-24.7,-2.3,-6.04,-1.42,1.35,-0.76,4.15,2.97,4.34,3.25,4.6,-4.58,-7.65,1.49,4.45,-0.92,7.11,-15.11,2.01,1.35
-19.82,-31.22,-2.2,-9.94,0.19,0.1,3.91,7.62,8.64,9.38,4.36,6.27,-3.13,-11.95,3.53,2.56,3.69,8.56,-17.07,2.26,5.76
-17.7,-27.57,-1.14,-9.29,2.3,-1.81,6.05,7.27,10.82,11.14,9.22,6.64,-3.3,-11.24,2.78,2.69,7.6,8.23,-14.57,3.38,7.77
-16.66,-27.88,0.5,-8.54,4.37,-4.14,9.21,5.53,12.95,11.67,13.44,9.64,-0.61,-10.91,6.22,2.13,11.41,8.63,-14.01,2.42,8.76
-17.2,-29.49,2.04,-10.58,5.59,-5.53,10.67,6.5,13.81,13.23,9.9,10.16,0.79,-12.75,13.12,1.11,10.87,10.99,-14.68,2.0,10.22
-19.83,-35.4,0.38,-10.84,3.44,-3.29,9.22,4.94,11.55,11.17,7.62,2.63,-1.84,-16.68,10.65,-4.55,8.45,7.3,-16.95,1.21,9.72
-17.54,-33.97,1.36,-8.17,2.05,-1.37,10.15,7.43,16.79,15.3,7.96,6.18,-1.99,-10.83,3.41,1.7,10.03,7.22,-14.52,3.26,11.08
-20.56,-36.98,-1.25,-11.07,0.19,-1.39,9.93,10.64,18.94,19.72,6.64,3.35,-4.25,-16.6,0.64,-1.76,10.31,8.05,-17.68,2.71,12.33
-22.58,-39.45,-2.62,-12.72,1.01,0.26,11.37,13.36,22.28,24.74,9.7,6.48,-5.61,-19.7,1.14,2.55,12.69,14.82,-18.15,2.27,14.18
-21.65,-38.96,-2.64,-13.85,0.59,-1.23,11.68,14.55,23.64,26.37,14.94,11.73,-3.73,-14.97,3.71,3.6,15.53,19.94,-19.55,2.03,13.93
-21.93,-36.22,-4.07,-10.36,-1.41,0.28,8.49,13.14,18.46,21.81,17.66,13.29,-4.24,-10.4,5.45,4.44,14.92,20.33,-18.11,1.04,10.55
-21.36,-34.41,-1.98,-9.97,0.33,0.32,5.81,9.06,12.82,15.03,18.65,14.49,0.06,-9.9,14.87,5.57,14.1,18.02,-18.04,0.19,7.15
-18.41,-32.8,-0.81,-5.6,-1.37,2.01,2.26,6.22,8.35,7.72,18.77,13.69,-0.39,-5.8,8.84,5.25,11.35,15.01,-15.21,-0.12,3.17
-17.15,-29.63,-1.81,-3.76,-2.77,2.44,0.4,6.28,5.39,6.05,20.09,16.88,-3.15,-4.34,4.18,7.35,7.79,14.33,-13.76,-0.5,2.2
-18.09,-32.88,-0.83,-4.83,-2.87,3.22,-0.92,5.81,3.37,3.87,13.13,11.21,-5.11,-8.38,1.58,5.48,4.31,12.11,-14.45,-1.57,1.14
-18.87,-33.05,-1.49,-6.89,-1.74,0.3,2.23,6.14,9.19,8.02,20.04,11.49,-5.6,-8.54,3.88,5.23,9.24,10.53,-16.15,-1.87,2.74
-18.69,-31.15,-1.5,-6.42,-1.0,0.77,2.94,9.52,9.02,13.67,17.84,13.53,-2.65,-5.32,6.82,7.53,7.29,15.9,-15.55,-2.03,5.55
-19.45,-31.21,-1.68,-7.21,1.04,-2.11,4.91,7.37,11.7,14.5,18.99,12.71,-1.64,-9.53,9.92,7.81,9.49,14.33,-16.17,-2.88,6.78
-17.89,-29.64,0.51,-6.85,3.02,-1.43,5.52,5.39,11.52,12.7,19.7,10.87,2.01,-8.67,11.57,4.56,10.15,11.38,-14.89,-2.76,5.38
-20.63,-35.48,-2.05,-7.68,0.35,0.01,5.14,5.01,10.87,11.5,14.4,9.04,-4.14,-11.61,2.41,2.39,8.55,9.42,-17.34,-1.58,5.91
-19.65,-34.29,-1.85,-7.97,0.19,-0.98,4.86,3.84,11.77,11.83,14.6,7.1,-2.37,-11.33,6.38,4.16,8.76,6.83,-16.86,-1.27,5.24
-19.72,-35.57,-0.3,-7.87,0.58,-0.93,6.16,5.29,14.14,14.39,13.3,8.15,-2.9,-11.28,4.16,1.0,9.54,7.13,-16.93,0.47,7.41
-18.68,-36.24,1.45,-10.22,0.67,-1.04,5.54,4.94,13.94,15.44,11.31,8.05,-1.57,-12.24,3.01,-0.59,8.99,6.36,-15.42,0.37,8.02
-18.54,-34.45,2.1,-8.88,2.43,-2.19,6.61,4.33,13.83,14.69,14.76,9.68,-2.78,-12.41,6.07,-6.27,11.66,4.75,-15.84,0.13,8.48
-18.31,-36.73,3.41,-10.03,4.79,-4.47,9.85,3.02,17.78,15.79,16.44,4.25,-2.14,-14.72,5.35,-2.65,15.11,3.21,-14.49,1.27,9.38
-17.67,-33.67,2.49,-9.59,4.17,-4.51,8.74,1.55,15.18,13.39,15.53,8.35,-3.19,-13.1,5.82,-3.47,14.32,1.38,-14.29,1.5,7.86
-17.43,-37.25,0.71,-12.45,3.26,-5.5,8.67,1.17,16.32,14.59,16.05,11.13,0.77,-17.01,7.25,-0.99,14.81,2.8,-14.25,1.02,8.11
-15.23,-30.09,0.63,-8.7,2.28,-2.22,8.22,0.87,18.04,15.37,20.58,10.24,-1.73,-9.39,10.96,3.89,15.85,3.82,-12.79,1.71,7.55
-15.98,-32.34,0.6,-9.8,1.92,-1.9,6.13,-0.11,16.42,12.79,15.33,11.35,-0.69,-10.08,10.73,2.68,13.84,3.29,-13.11,1.05,5.59
-13.78,-27.53,1.64,-8.65,3.83,-3.13,7.06,-1.0,17.26,13.53,21.04,11.87,1.64,-7.52,8.96,0.89,13.8,2.92,-11.62,1.52,5.29
-15.29,-31.45,-1.11,-6.09,2.15,-2.29,6.16,-2.26,15.03,9.69,12.8,6.64,-4.58,-7.58,5.06,1.07,10.37,-0.34,-12.74,1.35,5.46
-17.28,-32.7,-1.64,-8.81,2.39,-1.47,6.37,-1.48,12.57,8.51,14.36,5.1,-2.5,-10.78,2.63,2.01,10.02,-0.12,-14.75,2.05,5.78
-19.91,-36.63,-3.63,-11.32,-0.29,-0.83,5.2,0.38,13.04,10.12,12.61,5.16,-6.46,-14.73,0.2,-3.22,9.35,0.66,-16.86,3.06,6.11
-20.14,-35.7,-5.42,-9.76,-2.29,1.92,4.48,2.18,11.87,10.67,10.83,5.07,-7.42,-13.92,-0.27,-1.23,8.83,3.53,-17.64,2.29,5.77
-18.73,-34.67,-3.65,-10.26,1.02,-1.74,8.62,2.7,15.88,14.39,12.38,6.28,-3.88,-11.64,5.69,6.92,11.96,3.78,-15.34,2.75,7.25
-17.1,-33.23,-3.28,-8.96,2.24,-2.03,8.34,3.65,18.81,16.84,14.63,7.72,-1.73,-11.07,8.95,2.76,14.24,6.72,-14.81,0.26,7.32
-17.52,-32.25,-4.04,-8.83,1.79,-2.12,9.11,2.76,18.73,16.09,12.82,12.54,-0.63,-9.25,8.9,5.09,14.72,6.37,-14.58,-1.18,6.78
-17.97,-33.12,-2.51,-9.06,2.25,-2.37,9.29,3.59,19.66,16.08,15.96,7.18,-1.99,-10.54,6.82,3.66,17.63,7.58,-15.24,-1.54,7.04
-20.52,-36.39,-4.15,-10.55,2.81,-2.09,7.84,3.08,15.38,13.72,8.59,7.68,-4.14,-12.94,4.49,1.65,12.65,7.75,-17.01,-0.58,6.36
-22.6,-34.97,-7.74,-10.28,1.04,-1.0,6.62,2.27,10.75,10.56,5.48,4.39,-9.95,-10.76,-2.19,0.66,10.62,5.34,-19.47,-0.13,5.1
-22.93,-38.44,-7.98,-11.09,1.62,-1.08,6.3,2.19,9.11,9.41,1.31,4.66,-9.75,-12.06,0.41,1.25,7.89,3.95,-19.61,0.71,5.59
-23.74,-39.1,-8.23,-12.32,3.15,-1.69,7.76,1.25,9.63,8.93,3.02,0.95,-8.79,-14.02,-0.91,-2.15,10.53,2.85,-21.3,1.13,5.75
-24.46,-40.91,-11.39,-13.48,-0.14,0.87,4.3,0.61,8.32,6.42,1.05,0.19,-10.67,-17.47,-0.37,-3.3,8.75,2.39,-22.08,0.37,4.12
-22.02,-38.18,-9.0,-11.06,0.21,-1.51,5.41,2.54,10.14,8.62,5.97,5.13,-7.15,-13.61,-1.53,-0.16,9.48,4.64,-19.63,1.7,6.28
-20.39,-38.16,-8.94,-10.95,0.16,0.58,4.42,3.25,8.57,7.94,2.71,3.43,-7.09,-16.79,0.84,-0.22,7.25,4.46,-18.2,2.21,5.71
-22.71,-36.07,-9.15,-11.2,-0.66,0.7,4.43,4.18,8.73,8.77,4.12,4.56,-6.38,-10.98,2.71,5.71,8.09,7.94,-20.05,0.73,5.62
-21.69,-33.51,-7.6,-11.78,0.42,0.4,6.29,5.95,10.92,11.53,7.13,9.76,-4.45,-10.39,4.43,5.44,10.35,9.75,-19.09,0.63,6.92
-22.33,-35.86,-7.95,-12.26,-1.35,1.63,5.46,4.55,9.71,9.16,9.7,6.37,-3.44,-11.11,1.68,3.02,9.41,6.68,-20.6,-0.49,6.66
-18.61,-29.52,-7.0,-11.66,-0.74,1.18,6.01,6.4,10.43,10.0,10.68,11.79,-0.9,-5.49,2.21,8.05,10.65,8.91,-16.64,-0.68,7.34
-18.26,-31.66,-7.86,-10.84,-0.69,-0.45,5.51,5.6,9.37,10.21,9.91,11.12,-3.52,-9.55,3.24,5.71,8.44,8.17,-16.69,0.3,7.13
-14.13,-26.71,-4.63,-8.64,0.55,-0.76,5.24,4.07,7.43,8.85,8.92,10.08,-2.71,-5.72,2.22,4.56,6.82,6.99,-12.52,1.73,6.13
-13.63,-25.48,-3.69,-6.35,-0.98,0.75,4.09,3.25,8.18,8.93,7.33,9.12,-0.43,-6.35,0.68,6.87,6.97,6.56,-12.19,1.22,5.59
-15.51,-27.66,-5.9,-6.64,-0.34,0.7,3.9,1.57,7.43,8.15,11.0,4.9,-5.35,-8.66,1.56,4.28,7.1,6.15,-13.47,1.92,4.93
-15.14,-28.31,-2.81,-9.01,1.74,-2.83,4.43,-0.4,7.03,6.6,8.81,7.86,-0.11,-8.6,10.2,4.18,10.72,1.85,-12.81,1.61,3.85
-11.95,-25.26,-1.38,-6.85,2.45,-2.02,4.35,-0.78,8.06,4.66,6.24,8.15,0.89,-6.33,9.31,4.07,9.56,1.67,-10.03,0.17,3.08
-14.62,-29.94,-0.31,-8.37,4.79,-4.72,6.53,-1.1,8.35,6.41,6.68,6.16,1.49,-12.35,4.55,-0.0,11.56,1.67,-12.3,0.38,3.59
-14.44,-27.01,-1.67,-8.33,3.15,-4.66,5.25,-2.76,7.12,4.47,4.95,3.52,-2.24,-10.54,0.38,-1.5,8.26,0.83,-12.25,0.77,3.18
-13.53,-27.06,-0.78,-6.71,1.15,-0.72,3.38,-0.08,6.86,3.93,7.17,4.69,-0.68,-9.84,-3.22,0.27,7.21,4.15,-11.61,0.34,3.07
-13.71,-26.96,-3.61,-8.33,-0.84,-0.08,1.85,1.96,6.34,4.43,3.98,4.31,-5.76,-12.35,-2.68,2.55,7.22,6.35,-10.79,1.14,3.84
-17.59,-30.1,-6.42,-10.04,-1.94,1.22,0.41,3.71,3.38,4.14,3.9,2.84,-7.41,-10.67,-2.42,4.13,3.46,8.19,-15.31,0.42,2.72
-16.44,-29.43,-4.95,-9.4,-0.15,0.57,1.24,4.42,3.67,5.04,0.34,4.35,-6.02,-9.34,-0.21,2.93,2.18,7.9,-14.06,0.63,3.89
-17.01,-28.67,-5.99,-9.35,0.13,-0.5,4.03,5.71,5.71,6.34,1.1,4.24,-6.83,-10.89,7.09,2.43,5.54,7.1,-15.03,-0.04,6.35
-16.35,-27.73,-5.89,-9.61,-0.32,-0.93,2.02,4.99,2.96,4.35,-0.27,1.76,-5.74,-9.42,-4.06,2.93,2.74,5.84,-13.97,0.65,5.79
-13.53,-24.54,-3.62,-9.77,-0.1,0.01,2.95,5.28,5.66,5.35,3.38,4.43,-6.19,-10.14,-5.35,3.04,5.54,7.75,-11.36,-0.44,5.02
-10.65,-23.09,-1.6,-6.03,0.07,-0.04,3.93,6.18,7.98,7.7,6.64,8.9,-2.7,-8.29,-2.9,2.74,8.51,9.56,-8.46,1.02,6.08
-10.37,-21.21,-1.92,-6.27,-0.64,0.4,1.53,2.99,3.83,2.76,6.22,8.96,-1.18,-5.82,-5.07,1.5,5.67,5.64,-9.39,0.09,3.63
-11.57,-21.83,-2.94,-6.02,-0.21,-0.52,3.17,3.85,6.56,6.57,8.24,5.89,-2.3,-6.76,1.25,4.35,8.49,8.57,-9.11,-0.66,4.11
-12.13,-20.2,-3.25,-4.73,0.35,-0.52,2.62,2.7,5.96,4.67,2.07,9.02,1.01,-5.54,7.85,5.86,8.64,7.41,-11.04,-0.24,4.48
-10.15,-18.04,-3.81,-3.17,-0.83,0.6,-0.05,1.16,3.31,1.11,2.65,5.46,-3.34,-0.97,1.73,7.89,5.91,5.88,-8.03,-1.08,2.43
-10.95,-17.84,-3.01,-3.67,-1.34,1.26,-1.49,-0.19,1.01,1.16,4.4,4.19,-2.93,-3.42,-3.67,5.52,1.73,6.03,-9.53,-2.25,1.01
-9.47,-17.99,-3.07,-2.99,-1.91,2.18,-2.76,-1.39,-1.6,-1.76,2.29,3.66,-4.69,-1.62,0.93,2.61,0.56,4.71,-8.69,-2.47,-0.89
-7.71,-13.5,-0.59,-2.63,-0.79,1.3,-0.96,-2.57,-1.38,-1.76,4.62,13.12,-0.34,2.68,0.75,11.11,1.58,5.42,-6.88,-2.59,-2.18
-8.25,-14.5,-0.33,-4.52,-1.1,-0.07,-1.3,-2.1,-2.18,-2.01,8.33,5.56,0.81,-1.24,0.26,8.05,1.93,6.27,-7.17,-2.89,-2.25
-9.19,-15.7,-2.67,-4.26,-1.89,0.91,-2.31,-1.28,-1.1,-0.3,6.64,9.31,0.88,-3.68,-2.17,7.45,1.63,7.52,-8.81,-4.24,-2.27
-9.87,-16.1,-2.55,-6.74,1.06,-1.61,3.06,3.33,5.22,6.03,10.48,11.54,0.05,-2.32,1.66,9.45,5.72,11.67,-8.53,-1.8,3.16
-11.73,-17.31,-5.2,-10.07,-0.14,-0.87,2.68,3.63,5.44,6.67,8.35,8.69,-3.56,-7.93,-1.92,4.46,5.11,9.31,-11.21,-1.69,3.86
-11.9,-17.9,-5.16,-9.02,-0.04,-0.26,6.03,6.04,8.87,8.77,6.85,11.29,-2.66,-4.31,-0.3,4.11,7.83,9.47,-10.95,0.7,7.09
-11.91,-17.26,-5.35,-8.22,-0.5,0.71,6.89,6.4,8.31,8.05,6.5,7.89,-3.92,-5.52,-0.25,3.31,8.07,9.29,-11.42,1.3,6.64
-8.75,-16.36,-4.03,-8.1,0.32,-0.25,4.49,5.27,4.55,5.73,10.31,5.75,0.57,-6.95,3.19,3.61,4.85,8.5,-8.63,-0.19,4.85
-10.35,-17.46,-2.59,-8.26,1.33,-1.32,3.61,4.52,2.62,4.29,5.01,2.69,1.46,-7.65,5.61,0.63,4.69,7.92,-10.19,-0.75,5.26
-7.78,-15.84,-1.7,-8.73,2.2,-2.04,3.06,3.44,3.68,4.11,4.29,3.62,2.44,-9.01,4.7,0.53,4.81,7.34,-7.11,-0.23,5.02
-9.45,-17.3,-2.21,-8.38,3.25,-2.17,4.0,3.11,5.27,4.81,0.99,2.35,-2.45,-5.43,6.48,1.05,7.64,6.79,-8.73,0.71,4.26
-6.84,-15.18,-1.28,-6.1,1.7,-0.86,2.76,2.02,5.11,5.13,4.19,1.94,0.25,-4.42,4.84,0.53,7.76,6.13,-5.85,2.02,3.89
-9.58,-17.12,-3.72,-5.45,1.15,-1.19,2.02,-0.16,3.21,2.82,2.85,-2.3,-4.27,-5.16,-1.65,0.59,6.24,4.01,-9.03,1.65,2.39
-8.34,-18.59,-2.13,-4.79,3.27,-1.79,3.64,-0.62,1.62,0.85,2.05,-0.92,-2.42,-7.13,4.8,1.67,4.86,4.33,-7.18,2.32,2.68
-7.85,-17.99,-0.77,-8.25,3.26,-3.06,3.19,-0.37,1.24,-0.31,0.45,-1.47,-0.34,-12.46,2.43,0.36,6.02,3.41,-6.69,1.62,2.08
-7.14,-19.16,-1.29,-7.27,3.64,-3.14,4.02,-0.56,2.76,-0.18,-0.08,-0.42,-4.31,-11.39,-2.3,-4.41,6.67,3.75,-6.11,2.39,2.56
-7.87,-18.17,-0.85,-9.12,5.21,-5.36,4.93,-0.46,4.18,1.98,2.63,3.32,1.01,-9.8,6.56,0.78,9.27,3.1,-7.12,1.51,2.86
-8.97,-16.98,-3.49,-9.4,2.69,-2.43,1.63,-0.54,0.21,-0.51,0.41,-2.38,-4.16,-11.35,1.59,0.94,4.53,3.84,-7.23,0.42,0.82
-9.46,-17.91,-2.69,-8.29,3.65,-2.72,1.28,-2.42,-2.14,-3.48,-0.02,0.89,-2.53,-6.87,-2.19,3.69,3.45,2.45,-7.75,1.57,0.66
-6.73,-16.54,-2.87,-7.31,1.62,-1.3,-1.15,-4.64,-2.87,-6.08,-0.32,0.26,-2.52,-9.39,-1.76,1.27,1.41,0.33,-5.55,1.35,-0.4
-7.26,-18.42,-1.0,-7.65,2.97,-1.19,0.21,-4.64,-2.93,-7.03,-3.1,-2.37,-1.17,-10.85,-2.55,-2.49,1.63,-0.35,-6.16,3.45,-0.29
-4.61,-14.78,0.5,-6.06,4.72,-3.07,0.43,-6.95,-4.85,-7.5,1.56,0.0,-0.63,-6.29,-1.38,0.32,1.07,-2.72,-3.61,5.21,-0.37
-8.17,-18.52,-0.55,-8.02,4.25,-3.24,-0.11,-6.55,-3.71,-6.84,-2.76,-1.96,-1.09,-9.96,-2.12,-2.19,0.02,-2.89,-6.57,3.85,0.87
-7.91,-15.94,-0.98,-7.48,3.82,-3.62,-0.48,-5.32,-3.98,-5.9,-1.02,-1.95,-3.04,-6.75,-0.52,1.99,1.02,-2.53,-6.04,2.94,0.46
-8.97,-16.48,-2.66,-7.0,1.96,-1.19,-2.1,-5.64,-4.96,-6.41,-3.35,-5.82,-4.53,-6.47,-1.65,-0.14,-0.52,-3.07,-8.18,1.82,-1.29
-4.11,-11.35,0.68,-6.66,2.61,-2.11,-2.6,-4.97,-4.28,-5.81,-1.13,2.3,1.24,-3.31,8.25,-2.58,1.3,-1.92,-3.78,2.16,-0.62
-5.86,-13.94,0.89,-7.27,1.66,-1.95,-3.29,-5.34,-6.14,-6.36,-2.87,-1.66,0.24,-6.63,3.48,-1.86,-1.53,-2.92,-5.41,3.89,-1.19
-3.44,-12.18,0.54,-6.08,1.39,-0.38,-2.47,-3.29,-5.68,-4.59,0.23,-2.8,0.85,-3.31,-1.78,-2.17,-3.21,-1.38,-3.12,4.66,-0.4
-7.04,-14.83,-1.27,-7.03,1.03,-1.23,-3.2,-2.48,-6.07,-5.71,-4.19,-3.12,-2.63,-8.37,-6.64,-4.66,-4.88,-3.36,-5.48,5.78,-0.44
-6.09,-14.88,-3.53,-4.55,0.78,-1.12,-2.69,-3.79,-5.9,-6.51,-2.65,-6.26,-4.93,-6.34,-9.06,-2.47,-4.06,-3.49,-4.82,5.71,-0.55
-6.92,-13.28,-3.08,-4.07,1.28,-2.23,-1.66,-5.0,-3.21,-5.75,-2.12,-5.29,-3.23,-8.46,-6.48,-4.2,-1.83,-4.75,-5.86,4.77,-0.01
-4.0,-13.58,-1.46,-2.83,1.82,-1.25,-2.42,-4.75,-5.86,-7.03,-3.61,-4.87,-1.12,-7.15,-1.01,-4.05,-3.32,-4.84,-3.36,5.36,-0.47
-6.57,-15.29,-1.96,-3.76,0.59,-0.14,-3.79,-3.72,-6.76,-7.09,-1.01,-2.99,-3.38,-7.09,-3.71,-0.72,-4.14,-2.21,-6.1,5.49,0.08
-5.66,-14.24,-2.14,-3.77,-0.03,0.03,-4.77,-4.27,-6.24,-6.85,-0.64,-3.47,-2.29,-6.86,-1.83,-1.86,-4.88,-4.09,-4.45,5.71,-1.07
-7.5,-14.69,-3.07,-5.09,0.69,-0.55,-3.45,-5.69,-6.63,-7.89,-2.99,-3.02,-4.85,-6.55,-3.22,-3.88,-3.51,-5.72,-6.82,5.39,-0.78
-5.24,-11.94,-1.33,-2.07,1.1,0.15,-2.52,-5.41,-6.61,-7.96,-3.93,0.73,-2.15,-4.17,-4.44,-1.67,-3.33,-4.54,-3.48,6.88,-0.21
-7.83,-15.98,-3.33,-3.63,-0.98,0.28,-3.72,-5.57,-7.31,-10.25,-5.85,-7.69,-4.45,-6.17,-6.43,-2.1,-4.98,-6.15,-6.52,5.79,0.15
-5.2,-13.33,-2.93,-2.71,-1.12,1.76,-1.91,-2.72,-6.64,-8.11,-7.53,-6.86,-4.01,-3.5,-7.32,-2.9,-3.91,-3.97,-4.4,4.91,1.6
-7.54,-18.48,-3.6,-6.46,-1.73,2.35,-3.45,0.41,-5.96,-5.88,-5.34,-6.59,-2.6,-9.76,-5.24,-1.72,-2.74,-0.35,-7.38,4.06,1.06
-4.44,-11.82,-2.03,-6.96,-0.19,0.14,-1.95,1.67,-4.94,-5.45,-3.89,-6.44,-2.26,-8.31,3.45,-2.93,-1.45,0.27,-4.07,5.24,1.74
-4.55,-11.75,0.43,-4.18,1.86,-1.21,0.4,1.15,-0.37,-3.78,-2.84,-4.95,-1.49,-7.4,-1.78,-2.52,1.93,0.07,-4.56,5.73,3.3
-3.22,-10.03,1.5,-5.13,3.94,-2.97,2.03,2.99,0.53,0.3,0.93,0.21,-1.39,-6.27,-0.32,-1.77,3.71,3.48,-3.17,6.33,4.96
-4.48,-9.51,1.28,-4.37,3.27,-3.19,2.32,1.38,0.9,0.68,0.01,-3.26,1.14,-3.01,0.27,-2.16,3.21,2.5,-4.86,4.74,3.32
-4.62,-10.73,-0.11,-3.9,3.24,-1.82,2.78,1.8,2.44,3.64,1.1,-2.89,-1.39,-5.24,2.11,-2.87,2.53,3.37,-4.75,4.01,4.25
-4.22,-8.42,-0.11,-5.29,2.72,-1.75,2.35,1.41,2.31,3.51,0.67,1.89,2.7,-5.47,6.5,-2.72,3.97,4.87,-5.03,2.18,3.11
-5.38,-10.67,-1.59,-5.16,0.68,-1.24,0.41,1.02,0.6,1.79,-1.16,-4.0,-0.95,-9.34,-4.75,-2.2,0.58,4.55,-5.74,1.22,1.6
-2.38,-7.55,1.03,-3.4,2.26,-0.91,1.95,3.13,0.49,2.56,1.01,0.0,1.16,-4.25,-6.45,0.79,1.52,5.02,-2.99,3.24,3.64
-5.18,-11.03,-0.73,-4.72,1.55,-1.5,2.25,1.59,-0.08,-0.1,-1.95,-2.34,-3.54,-5.54,-4.96,-1.73,0.98,2.96,-4.63,2.8,2.83
-5.94,-12.52,-0.13,-4.22,-0.1,0.34,-0.89,-1.73,-4.11,-2.88,-3.63,-5.72,-4.04,-8.17,-7.54,-3.68,-1.8,1.64,-5.6,0.73,-1.1
-3.24,-7.92,0.79,-3.23,0.71,0.13,0.45,-1.51,-1.76,-1.7,2.86,4.52,-2.03,-0.63,-2.11,2.02,-0.38,2.25,-2.83,1.02,0.8
-1.29,-1.95,0.73,-0.45,-0.92,1.3,-2.41,-3.92,-3.32,-5.65,1.62,3.31,-0.49,0.83,-1.45,1.91,-2.5,0.14,-1.87,0.7,-1.41
0.41,-2.49,1.04,-0.38,-1.5,1.94,-1.36,-3.22,-2.46,-4.14,3.66,4.8,2.9,1.53,-1.58,3.46,-0.37,0.97,0.13,2.02,-0.97
-3.51,-3.16,-3.18,-0.9,-2.92,3.72,-0.77,0.48,-1.05,-1.35,-0.83,8.05,-4.21,5.55,-4.35,8.44,0.01,5.07,-4.27,1.35,0.5
-2.83,-0.82,-3.44,-1.51,-3.04,4.37,-0.56,2.46,-1.34,-0.6,-0.68,7.52,-4.35,6.81,-0.9,6.16,0.7,5.31,-2.55,0.26,1.73
-1.81,0.28,-4.05,1.21,-4.56,4.46,-2.5,2.96,-2.62,-1.27,-0.73,6.09,-4.75,8.32,-3.5,5.33,-1.99,6.41,-2.01,-0.65,1.39
-0.83,2.69,-3.47,2.85,-4.8,6.28,-2.74,6.28,-1.2,3.59,-1.24,9.52,-3.03,10.34,-9.33,10.86,-2.0,11.6,-0.91,-1.98,2.64
-0.11,3.01,-0.93,2.22,-2.94,2.76,-1.05,5.54,0.33,3.07,4.43,9.35,-0.4,8.6,-3.16,8.54,-0.64,10.59,-0.94,-1.56,2.64
-2.4,-2.72,-1.06,0.99,-2.43,3.79,-0.7,4.34,0.92,4.71,-1.11,4.66,-1.82,4.39,-4.71,5.01,0.25,10.39,-2.87,-0.77,2.86
-6.45,-6.54,-2.49,-3.51,-2.41,1.87,-0.97,1.4,-1.85,1.38,-0.49,4.1,-5.92,1.61,-3.2,4.68,0.3,6.77,-6.21,-1.48,0.96
-6.38,-7.32,-2.48,-3.78,-0.34,0.16,-0.71,-0.54,-3.58,-1.77,-3.2,1.32,-4.21,-1.31,-0.77,2.83,-1.7,2.62,-5.33,-0.64,2.26
-5.79,-5.87,-1.94,-5.25,1.02,-0.8,1.0,-0.13,-1.52,-2.13,-3.28,1.24,-1.78,-0.91,-1.47,-0.63,-0.32,1.05,-6.5,-0.88,3.24
-3.52,-7.49,1.73,-4.8,2.13,-1.51,4.72,-0.52,4.68,-0.47,-1.26,3.83,1.13,-3.89,-1.0,0.11,6.67,1.31,-4.12,-0.88,3.41
-4.63,-9.19,0.77,-6.25,1.48,-0.57,1.82,-1.7,0.42,-0.87,0.1,0.73,1.1,-7.11,-0.62,2.42,2.7,2.73,-5.2,-1.47,1.25
-2.45,-6.11,2.18,-4.34,2.97,-2.36,3.44,-2.85,1.12,-1.6,0.51,3.75,3.12,-2.28,-0.32,0.62,3.8,0.95,-2.19,-0.46,0.15
-5.71,-8.47,0.08,-5.98,0.64,-0.27,-1.19,-3.97,-4.3,-4.51,-1.39,1.58,0.43,-8.61,-1.76,-0.9,-2.14,-1.02,-5.58,-1.59,-2.64
-3.86,-5.89,0.07,-3.96,0.74,-0.37,-3.33,-3.34,-7.39,-4.27,-6.3,0.14,-0.86,-1.9,0.03,2.1,-7.3,0.37,-3.27,-0.15,-2.74
-5.45,-4.97,-2.54,-2.15,-1.06,2.23,-2.13,-0.8,-2.45,-0.49,-2.88,0.07,-4.81,-1.94,-8.32,1.3,-2.77,2.66,-4.82,0.5,-0.95
-5.72,-9.61,-1.44,-4.67,0.64,0.72,0.14,0.84,1.94,3.08,-2.84,-3.08,-4.62,-5.39,1.13,0.7,1.23,3.7,-5.54,0.46,1.43
-5.88,-7.32,-0.47,-3.72,1.56,-0.54,1.3,1.8,2.72,4.56,0.85,-3.3,-1.65,-3.63,4.04,0.48,3.2,4.75,-5.74,-0.1,3.23
-5.14,-7.42,0.98,-4.64,2.04,-1.54,3.12,4.12,5.33,6.93,2.79,-1.54,-1.02,-7.53,7.31,0.65,4.65,4.84,-4.28,0.2,5.65
-4.27,-7.28,2.77,-4.43,1.64,-0.95,3.26,4.8,6.82,7.21,2.8,-4.37,0.52,-7.79,4.04,-1.39,5.45,5.86,-4.31,0.1,5.96
-3.34,-5.59,3.16,-3.7,1.57,0.29,2.07,3.95,6.52,8.39,-2.48,-1.52,-1.77,-5.9,-1.77,2.58,5.97,8.25,-2.82,0.25,4.36
-2.64,-2.33,2.13,-1.4,0.32,0.22,0.46,2.58,5.76,8.35,-5.67,1.63,-3.86,-0.81,-3.25,4.34,4.52,9.46,-2.21,0.16,3.24
-0.14,-0.11,1.88,2.39,0.26,1.67,-0.74,3.22,4.0,9.79,-8.3,9.13,-2.13,3.5,-5.23,7.31,0.78,11.12,0.97,0.27,2.87
-2.23,-2.4,1.61,1.09,0.41,0.19,-1.59,2.63,2.47,8.51,-11.82,8.51,-1.62,0.01,-0.93,5.59,-1.02,10.56,-2.1,-1.56,2.32
-2.22,-3.06,1.91,2.22,-0.39,0.17,-2.03,1.17,1.35,6.72,-9.89,13.18,-1.79,3.12,-2.87,6.95,-2.92,9.69,-1.6,-1.77,1.47
-1.42,0.55,3.43,2.93,-0.69,1.37,-1.15,0.98,0.45,5.39,-6.66,9.25,-2.42,2.6,-4.16,5.4,-2.89,8.02,-0.62,1.19,2.28
0.62,0.12,3.38,2.3,-0.26,0.43,-2.56,-0.98,-1.17,1.54,-8.85,7.18,-2.33,1.8,-6.91,3.68,-3.74,6.3,1.05,3.36,0.98
0.76,3.33,3.42,3.12,-1.15,0.91,-4.01,-2.47,-3.18,-1.24,-6.74,8.51,-4.04,3.31,-5.05,4.97,-6.46,3.7,1.12,3.7,-0.17
11.51,6.0,4.22,6.91,-0.12,-0.88,-3.62,-8.68,-5.24,-7.8,9.74,2.64,3.38,4.78,0.64,-3.42,-2.07,-6.37,9.36,1.14,-4.2
7.36,4.29,1.73,7.24,0.61,0.67,-3.17,-7.8,-7.49,-9.57,5.23,1.83,1.42,3.43,0.68,-4.44,-4.0,-7.6,6.56,1.55,-2.88
3.57,0.42,-0.58,5.35,-1.18,1.17,-4.93,-8.18,-9.27,-11.19,2.2,0.57,-0.72,1.35,-0.18,-6.21,-6.41,-10.74,3.06,0.87,-2.46
5.0,1.54,0.86,6.05,-0.76,-0.35,-5.46,-10.21,-9.93,-12.37,0.61,-3.02,1.66,1.6,2.63,-5.82,-6.13,-13.21,3.81,0.98,-4.82
8.62,4.74,3.38,7.97,1.31,-0.92,-4.12,-10.17,-9.6,-12.0,4.55,-3.26,4.74,2.56,3.76,-5.86,-5.07,-13.08,8.05,1.4,-3.46
7.14,1.77,3.89,8.26,0.87,-1.43,-5.72,-10.24,-10.27,-12.36,-0.39,-3.37,3.27,1.2,0.11,-4.04,-6.94,-11.95,6.87,0.35,-5.25
11.21,6.29,6.19,8.87,1.75,-0.83,-4.29,-9.1,-10.32,-11.97,3.31,-0.13,6.55,2.15,4.12,-3.68,-5.34,-10.13,10.06,0.62,-5.74
4.12,3.34,2.07,6.78,-0.76,0.54,-7.62,-7.71,-11.77,-12.21,-2.11,-2.92,1.08,0.73,-0.79,-3.71,-9.22,-7.94,4.55,-0.07,-6.06
6.59,6.09,2.29,5.99,-1.25,1.46,-7.64,-6.68,-10.73,-10.78,2.28,1.41,3.14,2.39,0.97,-1.38,-8.06,-6.96,5.69,0.43,-5.4
5.83,2.39,1.46,4.88,-1.37,-0.16,-7.22,-6.35,-8.75,-7.94,0.4,3.24,1.7,0.64,0.09,-1.15,-7.68,-5.73,4.72,-0.63,-5.93
9.13,6.74,2.65,6.52,0.32,-0.72,-4.44,-5.92,-5.08,-5.79,3.49,1.36,2.63,2.7,1.53,-1.9,-6.36,-4.6,8.37,1.08,-3.46
9.58,7.03,4.02,6.13,2.52,-2.29,-1.45,-3.86,-1.9,-1.85,4.39,2.49,3.86,1.93,5.09,-2.72,-4.26,-3.01,8.83,0.51,-0.42
9.11,5.73,4.85,5.16,3.7,-3.59,0.52,-2.81,0.67,-0.2,5.16,4.25,5.07,0.28,2.73,-2.92,-2.59,-1.78,8.14,-0.38,1.28
6.85,7.63,4.27,4.85,2.14,-1.16,0.56,-3.46,-0.98,-1.52,5.86,2.96,4.87,2.04,1.39,0.12,-2.88,-3.19,6.66,0.53,0.55
4.12,2.8,3.06,2.62,1.61,-1.03,0.66,-2.88,-0.72,-2.85,6.92,3.26,3.34,1.06,-0.59,-1.74,-2.13,-2.41,3.52,-0.13,0.74
7.63,5.07,4.24,3.26,3.52,-1.98,1.34,-5.16,-1.1,-5.76,9.15,5.15,2.95,-0.63,1.02,-4.68,0.67,-5.36,6.64,0.17,-0.23
8.09,4.62,4.09,1.68,2.45,-1.93,-0.51,-6.79,-3.07,-6.98,3.92,2.52,2.04,-0.8,0.11,-4.42,-1.45,-5.89,7.37,0.51,-2.31
10.37,7.19,5.83,2.89,1.65,-1.98,-3.53,-8.25,-5.45,-9.24,6.64,1.32,6.67,0.32,2.97,-5.74,-3.34,-6.83,8.23,0.22,-4.15
8.72,5.62,6.25,2.9,1.87,-3.02,-0.26,-6.9,-1.9,-7.02,14.26,5.48,9.16,-0.06,7.34,-5.0,1.1,-5.22,7.21,-0.82,-2.87
6.86,5.19,5.76,2.33,1.94,-3.48,0.96,-6.0,-0.94,-4.81,13.36,4.73,10.62,1.42,8.38,-4.12,2.52,-5.01,5.36,-1.78,-2.41
5.62,3.72,4.68,-0.45,3.58,-3.94,2.46,-5.62,0.05,-3.97,16.26,3.05,10.24,0.1,10.14,-5.0,3.25,-4.83,4.15,-2.0,-1.08
6.53,4.61,4.22,-0.39,4.89,-4.7,3.46,-5.59,0.45,-3.55,12.06,2.62,8.17,-0.12,9.08,-5.92,4.12,-6.85,4.51,-2.45,-0.34
5.57,4.76,2.99,-0.6,3.61,-3.43,1.62,-5.66,-1.73,-4.6,7.7,2.98,6.67,-0.37,7.57,-5.92,2.43,-6.53,3.45,-2.85,-0.48
7.57,7.28,3.24,1.59,2.59,-2.98,-1.28,-6.57,-4.29,-6.36,6.38,-0.22,8.26,0.09,5.11,-6.75,-0.8,-7.38,4.84,-2.96,-1.95
5.72,4.56,3.33,2.82,1.49,-1.56,-1.93,-6.85,-4.98,-8.4,4.48,-0.45,4.78,0.15,4.87,-3.17,-1.61,-6.52,4.43,-2.24,-1.62
7.37,7.37,4.77,3.66,1.9,-2.86,-3.53,-9.98,-7.4,-11.24,3.96,-2.77,6.8,0.41,5.92,-4.65,-2.69,-9.88,6.12,-1.06,-2.87
5.5,4.39,2.94,0.35,1.39,-2.97,-3.41,-9.08,-7.89,-10.88,2.09,-2.27,3.04,-4.8,4.1,-2.34,-4.62,-8.54,4.35,-0.03,-2.23
3.14,1.91,0.35,-1.72,1.54,-2.1,-3.05,-6.14,-6.66,-7.84,2.09,-2.19,1.07,-4.69,4.35,-3.95,-3.7,-5.83,2.19,0.06,-0.98
2.37,0.79,0.74,-2.12,0.65,-2.21,-0.58,-3.98,-4.03,-5.68,5.35,0.01,0.68,-4.48,4.66,-5.5,-1.37,-5.8,1.92,-0.08,0.53
2.33,-1.29,0.19,-1.65,0.98,-2.19,0.34,-2.62,-2.26,-3.6,1.38,-1.83,-0.49,-3.15,1.05,-3.31,-1.76,-3.06,1.58,-0.75,0.61
2.76,1.48,0.38,0.54,0.78,-1.1,0.59,-3.51,-1.58,-3.2,4.76,1.18,0.19,2.16,2.05,-0.39,-1.75,-1.61,2.44,-1.44,0.29
2.08,3.01,0.22,0.28,0.65,-1.2,-0.04,-2.55,-3.35,-4.87,-0.23,1.8,-1.71,1.18,-1.82,1.08,-3.76,-1.23,1.6,-0.62,0.76
-0.34,-2.05,-1.3,-2.65,-0.71,-0.7,-0.86,-1.53,-2.53,-4.06,3.7,2.42,-1.81,-1.95,-0.17,0.51,-3.5,-0.22,-1.08,-1.47,-0.55
-1.86,3.15,-2.57,-2.72,-1.59,0.86,-2.84,0.62,-2.51,-2.87,2.34,5.76,-3.36,0.56,-0.64,-0.6,-5.67,0.28,-2.28,-2.25,0.58
0.82,2.24,-2.78,-2.4,-3.55,3.03,-3.43,3.88,-1.29,0.57,4.45,4.12,-3.0,0.75,0.25,2.62,-5.24,3.13,-0.89,-2.36,0.08
0.85,3.16,-3.81,-2.26,-4.28,2.48,-3.86,3.46,-2.0,0.25,5.8,4.4,-3.27,1.97,-1.37,2.88,-6.72,5.26,-0.0,-2.2,0.83
4.0,5.94,-2.03,0.08,-2.73,2.44,-2.46,3.67,-0.64,2.86,8.42,9.26,0.36,6.7,-1.17,5.13,-5.38,6.92,2.62,-1.4,1.05
3.01,5.02,-2.17,1.82,-2.06,1.94,-3.15,1.43,-2.45,1.53,4.62,8.98,-2.63,5.87,-3.88,5.24,-6.42,6.79,1.83,-0.59,0.31
3.74,5.08,-0.96,2.95,-1.0,1.47,-4.37,-1.09,-3.4,-1.22,4.5,6.45,-0.89,6.27,-4.99,3.51,-8.14,3.89,3.14,-1.19,-1.92
2.26,7.15,-1.97,3.23,-1.5,0.98,-4.58,-3.73,-3.99,-3.92,4.85,9.12,-2.52,5.53,-5.99,2.78,-8.42,-0.27,1.92,-3.15,-3.64
-0.87,1.17,-5.81,0.22,-3.44,2.99,-4.63,-4.23,-4.76,-3.77,3.21,0.87,-5.54,3.73,-5.27,6.21,-8.65,0.23,-1.5,-3.89,-3.96
-3.0,-0.11,-6.01,-1.74,-2.62,2.14,-3.14,-1.62,-4.21,-2.04,5.91,1.68,-5.05,-0.72,-4.26,-2.34,-8.1,1.17,-3.74,-1.5,-1.8
-2.82,-0.37,-4.15,-2.51,-2.32,1.44,-3.37,-2.45,-3.43,0.07,6.35,1.48,-3.34,-0.14,-1.86,-2.21,-7.0,0.69,-3.16,-1.64,-1.94
-3.45,-2.26,-3.36,-3.86,-1.7,1.29,-4.46,-3.59,-5.52,-2.05,1.43,-0.84,-2.37,-3.12,-1.08,-3.97,-8.41,-0.51,-3.9,-2.09,-2.86
-1.31,-0.28,-1.21,-1.44,-1.66,2.38,-5.81,-3.67,-7.06,-3.74,-3.67,0.17,-2.39,-1.03,-5.18,-1.36,-10.32,-1.2,-1.25,-2.09,-3.92
-0.99,-0.14,-3.52,-2.54,-2.81,2.01,-8.59,-5.75,-10.74,-8.88,-10.16,-2.98,-4.14,-2.43,-7.04,-0.63,-12.86,-3.37,-2.51,-3.54,-6.62
-2.51,0.37,-3.59,-2.13,-4.28,3.85,-9.58,-4.11,-11.22,-8.34,-12.51,3.61,-6.59,-0.08,-10.06,2.56,-14.2,-1.8,-2.43,-3.05,-6.24
-1.91,-0.14,-4.01,-1.02,-5.41,4.57,-9.08,-2.26,-9.65,-6.93,-13.65,5.38,-6.23,2.48,-10.25,3.23,-12.4,-0.05,-2.56,-3.32,-6.55
-0.75,3.62,-2.17,0.16,-4.91,4.63,-9.71,-2.4,-10.08,-7.28,-10.57,4.08,-5.27,2.52,-8.4,2.58,-11.98,0.22,-0.63,-2.92,-7.19
-1.8,-2.52,-2.2,-2.21,-5.3,3.96,-8.01,-0.78,-7.97,-5.65,-13.25,-1.5,-6.4,-9.77,-7.62,0.54,-9.62,0.55,-1.24,-3.14,-5.61
-6.67,-16.29,-4.63,-3.29,-4.49,4.59,-4.3,0.29,-5.28,-5.72,-11.96,-9.74,-8.44,-15.62,-7.22,-0.7,-6.78,-0.5,-5.18,-1.95,-3.59
3.26,9.33,-3.19,4.17,-7.08,5.0,-9.61,-4.43,-11.65,-12.4,-12.67,-2.64,-5.15,7.76,-6.74,3.2,-10.32,-4.65,2.23,-2.8,-7.66
2.96,13.35,-2.94,5.88,-6.4,6.12,-7.55,-4.2,-9.89,-14.05,-11.08,-2.06,-6.3,9.7,-5.38,0.43,-7.29,-4.5,2.77,-1.16,-7.44
0.76,10.94,-4.94,4.36,-5.1,5.08,-5.8,-4.58,-8.61,-13.86,-13.57,-3.49,-10.84,11.99,-8.64,0.93,-4.72,-3.66,0.47,0.34,-6.39
-0.99,10.77,-6.13,3.81,-5.02,4.01,-5.47,-6.06,-9.27,-15.23,-13.38,-6.41,-13.73,12.01,-10.41,0.18,-4.17,-4.14,-0.2,0.02,-6.9
0.02,6.57,-5.58,2.06,-4.5,4.48,-3.91,-3.85,-7.23,-12.32,-15.07,-9.04,-15.15,4.44,-11.73,-0.16,-3.59,-3.86,0.53,0.99,-5.05
0.49,0.3,-3.6,0.57,-4.38,3.97,-2.9,-1.7,-4.72,-8.56,-12.6,-9.03,-11.85,0.8,-10.38,-0.6,-2.25,-3.26,0.05,0.42,-2.95
1.75,8.82,-4.11,2.18,-5.28,3.92,-1.8,-0.14,-2.62,-6.28,-9.62,-3.4,-10.25,8.07,-6.96,2.35,-1.87,-0.57,0.52,-2.64,-2.28
0.22,8.81,-3.54,1.61,-4.62,4.06,-0.58,1.53,-0.71,-3.11,-14.09,-1.5,-10.23,9.52,-3.64,2.81,0.48,2.46,-0.15,-0.56,-0.58
-4.02,3.67,-5.15,-1.22,-3.07,2.49,2.35,2.42,1.22,-2.72,-14.7,-10.24,-13.83,0.4,-5.07,-2.36,2.1,1.56,-3.58,0.87,2.68
-7.05,-2.83,-7.94,-3.38,-2.77,1.84,3.66,2.88,-0.21,-4.75,-18.48,-13.85,-18.3,-2.49,-9.72,-4.27,0.96,-0.66,-5.79,1.77,4.12
-8.19,-3.48,-9.15,-3.81,-2.22,2.33,5.4,4.63,1.02,-2.65,-20.43,-10.2,-18.13,0.17,-10.37,-2.73,0.55,-0.68,-8.15,0.12,5.83
-7.45,-2.67,-10.73,-5.44,-3.91,3.78,5.11,5.33,3.04,-2.94,-17.36,-12.69,-18.18,-1.45,-10.64,1.95,0.94,0.21,-7.69,-1.13,5.3
-12.97,-8.63,-13.07,-6.98,-5.05,5.0,4.56,7.49,3.86,0.44,-17.46,-11.05,-19.39,-1.87,-11.36,2.51,0.34,4.2,-13.06,-2.0,5.46
-12.07,-2.72,-13.04,-2.95,-5.67,5.66,4.61,7.7,4.57,2.73,-14.21,-8.62,-19.18,2.7,-8.89,4.69,1.82,6.51,-11.32,-2.97,5.3
-10.34,-0.77,-12.77,-1.42,-6.17,5.55,2.7,6.41,2.36,1.31,-13.2,-8.54,-16.02,5.16,-8.5,5.58,-0.82,4.79,-11.15,-3.56,4.08
-5.32,3.19,-9.23,0.43,-4.21,4.99,2.3,5.4,2.03,1.57,-11.8,-7.03,-13.29,7.87,-7.75,3.09,-1.72,3.36,-6.86,-4.44,3.15
-6.09,-0.19,-9.23,-0.74,-4.08,2.5,1.56,5.55,2.99,3.74,-15.57,-6.34,-16.54,2.17,-8.64,0.91,-2.73,2.97,-7.04,-5.24,3.43
-9.31,-5.8,-10.12,-2.44,-3.15,1.99,1.94,3.87,5.76,5.05,-18.0,-7.49,-16.94,-2.56,-8.56,-1.52,-1.27,1.97,-8.7,-5.09,3.28
-6.05,-1.27,-8.96,0.4,-4.11,3.23,1.87,4.38,8.84,8.71,-12.55,-7.7,-16.78,-0.03,-8.78,-1.24,1.3,2.99,-6.27,-3.6,2.45
-7.03,-2.74,-8.03,1.08,-5.49,4.09,2.13,4.76,9.44,10.56,-16.18,-11.22,-16.5,-1.87,-11.44,-0.83,2.95,4.18,-5.64,-3.41,3.44
-7.11,-2.05,-6.95,3.87,-4.91,5.78,2.55,6.2,11.12,11.93,-15.53,-8.03,-16.04,3.34,-11.21,0.6,3.73,8.0,-5.82,-3.21,3.78
-4.86,-2.04,-7.45,3.29,-5.19,3.98,-0.08,4.67,6.05,7.53,-16.84,-8.7,-15.95,2.74,-11.33,0.87,1.34,6.28,-3.99,-3.38,0.98
-2.78,-1.84,-5.02,4.55,-4.81,4.01,-1.0,1.97,1.08,1.36,-22.11,-12.11,-15.4,3.9,-11.59,0.1,-1.44,2.58,-2.59,-2.39,-0.27
-6.17,-2.3,-6.31,4.58,-4.02,2.5,-2.0,-0.23,-3.33,-3.96,-23.72,-15.15,-19.72,1.53,-13.28,-3.8,-3.71,-2.69,-3.54,-1.07,-1.31
-7.56,-6.35,-7.18,2.25,-2.9,1.74,1.01,-1.39,-3.12,-6.83,-20.8,-20.24,-16.57,-2.43,-10.24,-2.83,-1.21,-4.54,-4.8,-0.35,0.01
-4.98,-3.09,-4.02,3.55,-0.57,2.02,1.89,-3.07,-3.49,-8.09,-22.03,-16.44,-15.77,-0.71,-7.22,-6.63,0.26,-5.62,-3.34,-0.26,-0.39
-4.98,-5.41,-2.32,1.92,0.11,0.35,0.91,-0.99,-3.47,-7.23,-19.95,-12.65,-12.13,-1.17,-5.63,-4.72,1.15,-3.06,-3.65,-0.86,-0.21
-4.55,-5.57,-2.93,1.97,0.7,-0.56,1.54,-2.65,-5.97,-10.65,-16.06,-10.49,-12.28,0.75,-5.28,-6.82,1.58,-6.06,-3.97,-1.81,-1.65
-0.82,-2.75,-2.2,3.55,-0.37,0.37,0.49,-4.03,-8.55,-13.24,-18.9,-15.04,-11.85,1.92,-6.06,-4.64,-1.59,-8.13,-2.04,-3.08,-3.58
-2.22,-1.91,-3.35,5.6,-1.64,1.53,1.52,-2.42,-7.48,-11.48,-16.01,-16.35,-12.26,3.49,-9.32,-3.27,-2.69,-8.83,-1.94,-1.89,-2.04
-5.03,-4.43,-5.47,5.72,-2.89,3.03,1.78,-1.32,-6.09,-9.38,-19.04,-13.7,-14.38,2.92,-9.18,-1.49,-2.85,-8.31,-3.29,-1.71,-0.46
-2.94,0.65,-4.44,8.06,-3.36,3.77,-1.27,-1.95,-9.51,-11.17,-18.59,-13.24,-14.44,6.97,-11.94,-0.7,-6.83,-7.89,-2.01,-2.41,-2.32
-1.55,-3.94,-1.29,6.1,-1.47,1.86,-0.43,-3.43,-10.16,-11.9,-15.94,-11.96,-11.51,2.19,-8.72,-2.65,-7.43,-10.79,-1.22,-0.51,-2.73
-1.7,-2.78,-1.04,5.02,-1.83,0.62,-1.61,-4.61,-11.01,-13.51,-17.31,-12.31,-11.47,2.59,-7.35,-2.1,-8.91,-11.56,-1.19,-1.39,-3.59
-0.4,-0.08,-2.04,6.78,-3.58,2.46,-3.15,-4.47,-13.57,-14.4,-18.19,-11.73,-13.67,4.25,-10.16,-0.67,-11.99,-11.46,0.14,0.15,-4.24
-1.77,-1.75,-3.23,6.69,-3.66,3.84,-2.23,-4.4,-11.97,-14.16,-17.29,-12.21,-14.48,3.68,-12.0,-0.5,-11.27,-10.77,-0.92,1.07,-2.99
-2.91,-1.71,-5.04,7.62,-3.59,4.24,-1.0,-2.51,-8.32,-9.79,-17.93,-11.68,-15.46,6.67,-13.51,-0.07,-7.96,-9.02,-1.57,2.64,-0.72
-0.98,1.76,-4.89,8.07,-3.05,3.73,-0.43,-3.23,-6.49,-9.45,-16.26,-8.27,-16.96,6.69,-13.96,-0.52,-6.65,-8.67,0.04,2.6,-1.42
-0.46,-1.22,-4.28,5.79,-2.0,2.16,3.76,-2.92,-1.45,-4.25,-13.28,-8.41,-14.21,5.27,-10.3,-2.55,-2.85,-7.35,0.18,1.96,0.76
0.06,-0.21,-4.54,4.89,-0.83,1.35,5.65,1.12,2.25,1.39,-11.35,-9.04,-12.78,3.37,-8.99,-1.4,-1.67,-3.04,0.51,2.31,3.07
0.74,1.65,-5.65,5.15,-2.08,1.66,4.87,2.54,2.7,1.41,-12.46,-3.52,-12.06,4.27,-8.95,1.23,-1.13,-1.74,0.45,1.04,2.97
-3.12,-2.09,-6.65,2.54,-2.01,2.09,4.88,3.88,3.03,3.58,-9.65,-9.73,-12.49,1.26,-7.83,0.69,-3.29,-0.62,-1.86,1.18,5.03
-3.47,-0.69,-6.7,2.6,-1.97,1.86,4.23,3.84,2.33,2.15,-12.0,-7.15,-12.38,3.58,-6.9,-0.76,-2.93,0.8,-2.43,1.44,4.67
-2.43,0.74,-7.13,2.38,-3.2,2.95,3.03,4.35,3.42,3.19,-9.31,-5.13,-11.3,3.4,-7.58,1.35,-2.06,1.87,-2.45,1.24,4.36
-3.03,-1.97,-9.2,1.95,-4.87,3.07,4.36,5.52,5.94,5.45,-8.6,-3.94,-14.32,2.48,-10.12,0.37,-0.25,5.39,-2.66,0.24,4.5
-0.69,1.45,-7.55,3.18,-3.28,2.79,4.1,5.28,4.31,5.36,-10.19,-1.42,-13.39,4.14,-9.5,2.01,-0.36,5.36,-0.64,0.17,3.1
-1.8,-0.66,-6.86,3.9,-2.39,1.66,1.16,2.21,1.81,2.37,-10.83,-5.24,-14.22,3.87,-11.01,1.76,-0.91,2.9,-1.58,-1.3,0.58
-0.95,1.5,-2.58,5.7,-1.36,2.53,1.0,-0.38,-0.66,-1.45,-8.45,-1.92,-10.31,5.53,-6.44,0.55,-1.06,1.72,0.03,-0.83,-1.15
-3.12,-3.5,-4.41,2.93,-1.81,1.49,-1.77,-3.34,-3.87,-3.35,-8.83,-2.08,-9.83,3.65,-6.16,0.17,-3.43,-0.35,-2.74,-2.79,-3.67
-1.15,-2.04,-3.16,4.39,-2.59,2.83,-3.67,-3.84,-4.89,-3.56,-5.4,-4.39,-6.5,6.49,-3.4,3.77,-3.2,1.07,-0.7,-2.77,-4.73
-0.62,-1.95,-4.75,5.27,-4.09,2.79,-3.44,-3.83,-3.83,-3.05,-7.92,0.56,-6.99,8.38,-2.55,5.75,-3.13,2.37,-0.63,-2.97,-4.47
-0.79,-0.82,-4.77,3.83,-1.05,1.77,-0.77,-3.98,-3.11,-2.06,-3.9,-1.12,-6.76,6.69,-2.03,5.61,-1.78,2.35,-0.62,-1.49,-3.3
2.91,3.31,-3.64,5.22,-0.36,0.54,0.68,-5.77,-1.63,-2.28,-3.32,1.97,-5.9,6.74,-2.53,3.39,-0.02,0.87,2.89,-1.28,-2.93
1.89,1.92,-3.77,3.07,0.33,1.23,2.1,-5.52,-2.43,-4.17,-4.02,4.54,-5.68,6.13,-3.78,5.58,0.82,0.19,1.34,-0.2,-2.64
0.23,-0.48,-4.11,-0.14,0.34,-0.77,0.78,-7.3,-5.22,-7.91,-0.87,1.78,-4.88,2.53,-3.64,5.3,-1.45,-2.15,0.25,-1.63,-4.0
1.58,0.13,-2.85,0.67,-1.44,-1.08,-0.32,-7.19,-6.13,-8.32,-1.55,1.23,-6.1,5.37,-2.59,4.94,-1.51,-2.13,0.79,-2.45,-4.61
5.09,4.44,0.56,2.52,0.07,-0.89,-0.17,-6.83,-6.46,-8.4,-1.04,4.16,-3.13,8.16,-0.84,0.12,-1.45,-2.8,4.34,-0.89,-5.02
5.34,5.26,-0.53,4.39,-0.45,0.17,-1.16,-5.31,-7.11,-7.44,-4.57,-0.1,-4.54,7.85,-1.62,0.68,-3.83,-3.17,5.23,-1.14,-4.15
6.13,4.8,-1.52,6.32,-1.76,2.29,-0.7,-2.52,-6.23,-6.2,-4.65,1.6,-5.15,9.88,-4.38,2.26,-3.9,-1.49,5.15,-0.09,-2.31
3.92,3.22,-4.5,6.1,-3.03,3.43,-1.48,-1.8,-6.54,-5.44,-6.18,-1.5,-8.29,8.04,-7.41,1.34,-6.24,-1.88,3.07,0.95,-1.6
2.0,1.61,-4.26,5.6,-3.83,3.18,-2.46,-0.1,-5.17,-2.83,-6.15,-0.38,-8.58,7.38,-7.98,3.49,-6.66,0.13,2.21,-0.32,-0.96
3.42,6.5,-3.04,5.74,-3.04,2.91,-1.18,0.79,-2.84,-0.46,-3.12,2.95,-6.84,9.77,-7.3,3.94,-4.23,1.73,3.71,-0.88,-0.11
3.32,3.08,-1.94,2.39,-0.85,-0.3,1.27,-1.95,-1.19,-1.38,1.36,2.84,-3.16,4.62,-1.93,0.37,0.18,-0.32,2.59,-3.49,-1.15
3.61,3.59,-1.39,0.13,0.97,-0.19,2.19,-2.95,-0.61,-1.56,3.94,3.21,-0.57,4.4,0.29,1.24,2.13,-1.12,2.73,-3.13,-0.35
1.55,-2.82,-2.29,-1.44,1.95,-2.08,2.31,-4.75,-2.27,-4.73,3.67,1.89,-3.3,0.13,1.73,-0.4,1.6,-2.71,0.66,-2.66,-1.92
3.49,0.65,-2.29,-1.68,1.93,-2.48,3.6,-5.9,-2.08,-5.57,1.15,0.27,-0.02,1.22,4.49,-2.94,3.06,-4.25,1.99,-2.6,-1.96
0.59,-0.54,-2.61,-3.29,3.38,-3.92,4.05,-3.98,0.86,-1.82,5.39,4.31,-0.44,-0.52,7.03,-2.75,6.38,-1.05,-0.2,-3.82,-2.51
0.01,-0.21,-1.53,-2.96,2.44,-3.13,3.52,-2.26,0.08,-2.55,3.17,2.28,1.13,0.38,5.72,2.89,5.04,-0.15,-0.68,-3.99,-1.68
1.3,0.79,-0.5,-1.9,1.43,-1.55,2.62,-1.44,-0.47,-2.45,3.94,5.62,1.71,3.28,4.89,2.06,4.1,1.96,0.27,-3.86,-1.22
1.81,2.23,-1.56,0.41,0.07,0.15,1.14,-0.96,-3.01,-2.62,5.96,4.65,0.4,5.35,1.33,2.69,2.74,2.76,0.78,-3.51,-1.21
1.81,3.96,-0.45,2.14,-0.17,0.73,0.65,-2.3,-3.91,-4.28,4.52,3.7,-1.36,5.27,-0.15,1.7,0.09,0.16,1.62,-4.03,-2.11
4.25,6.58,-1.18,2.5,0.4,-0.02,1.02,-4.89,-4.01,-3.98,6.31,2.08,-0.12,5.22,1.98,-0.84,-0.34,-2.26,2.65,-4.45,-2.81
0.89,1.07,-2.74,-1.12,1.46,-2.04,2.96,-5.11,-3.71,-4.92,1.41,-1.74,-1.73,0.82,0.79,-0.75,-1.08,-3.61,-0.26,-4.74,-1.42
-0.55,-0.78,-2.88,-3.01,2.47,-2.65,5.98,-1.92,-0.65,-2.18,4.4,1.03,-1.91,0.95,2.54,-1.57,0.75,-2.05,-2.25,-3.35,1.52
0.83,2.52,-3.31,-2.44,2.81,-2.01,6.65,-0.68,1.15,-0.52,3.36,2.65,-3.44,3.21,2.8,-0.02,2.1,0.88,-1.22,-3.26,2.84
1.07,2.58,-4.06,-1.28,2.02,-1.24,5.9,1.64,-0.02,0.22,2.19,3.95,-5.1,5.96,-0.68,0.11,1.71,2.27,-1.42,-3.9,3.6
-1.88,0.98,-5.88,-2.75,1.01,-0.82,5.28,4.02,3.18,3.83,1.11,4.71,-7.54,4.12,-2.44,0.8,2.73,4.18,-3.55,-5.44,4.53
-3.02,-1.06,-6.01,-2.57,0.08,0.36,3.84,3.65,0.76,1.99,-3.84,2.08,-9.38,2.8,-4.32,3.44,-0.05,5.02,-3.79,-4.78,3.31
-1.74,-0.22,-5.39,-2.66,0.94,-0.29,4.96,3.12,1.81,2.91,-2.06,0.15,-8.71,1.18,-3.94,0.68,1.12,1.95,-2.66,-3.14,3.27
-5.71,-1.72,-8.24,-4.3,-0.13,0.04,3.23,2.99,0.91,1.51,-3.29,-2.18,-10.04,-1.36,-3.75,0.21,0.16,1.3,-5.41,-1.89,2.14
-3.11,1.34,-6.61,-3.97,-0.03,-0.25,3.29,0.84,0.9,0.5,0.7,-1.76,-9.84,-2.61,-4.32,-4.85,0.72,-0.97,-3.34,-0.65,1.52
-2.01,2.36,-4.32,-2.2,-0.44,0.6,3.96,1.52,3.27,2.11,6.09,-1.47,-6.78,0.65,-3.37,-0.84,1.88,0.17,-1.99,0.54,2.69
-0.8,2.16,-4.75,-2.01,-1.39,0.67,2.41,0.57,1.97,0.56,2.44,3.78,-5.5,3.35,-1.83,-0.21,1.12,-0.15,-1.64,0.29,2.12
1.27,5.49,-4.64,0.57,-0.77,1.51,2.9,0.53,1.88,0.63,3.78,5.76,-4.88,5.69,-0.84,2.94,0.74,0.89,0.13,-0.13,2.52
2.21,3.83,-5.39,-0.49,-0.16,0.93,2.77,1.04,0.18,-0.1,-0.86,-1.15,-6.76,5.13,-2.68,1.45,-0.57,-1.4,0.37,0.05,2.79
1.84,4.62,-5.21,-0.83,-0.28,-0.34,-0.57,-1.13,-3.7,-3.49,1.29,2.13,-6.71,3.9,-4.01,-1.11,-2.37,-3.98,0.64,-0.21,0.23
-0.09,2.41,-5.35,-1.47,-1.66,1.6,-3.75,-2.31,-8.82,-8.34,-1.37,-5.91,-10.04,3.0,-7.7,-0.96,-6.75,-4.38,-0.77,-0.46,-2.27
1.07,4.67,-4.28,-0.69,-1.56,1.67,-4.52,-1.84,-9.94,-8.91,-0.79,0.59,-7.38,3.62,-6.87,0.54,-6.56,-3.4,0.25,-0.05,-2.81
2.78,6.43,-2.66,-0.64,-1.37,1.62,-5.08,-2.76,-9.31,-8.14,4.38,0.89,-4.38,4.97,-1.67,3.88,-5.31,-1.56,1.53,-1.06,-3.73
-0.24,1.76,-4.83,-1.91,-0.39,0.22,-2.86,-3.38,-7.13,-8.49,-0.21,1.32,-5.79,3.28,-4.43,1.4,-3.27,-3.09,-0.89,-1.77,-3.72
1.92,2.72,-4.54,-2.74,0.04,-1.93,-2.25,-3.39,-5.49,-7.68,-0.46,-4.18,-4.14,1.64,0.32,-1.98,-1.85,-6.48,0.18,-1.05,-2.88
-3.47,0.32,-5.4,-3.4,-1.15,-1.68,-2.96,-3.23,-5.49,-7.83,-3.22,-4.2,-7.08,1.8,-1.85,-1.98,-3.04,-7.09,-3.28,-0.85,-2.62
-3.51,-1.2,-5.91,-3.36,-0.55,-1.07,-3.74,-4.75,-6.75,-10.04,-2.96,-5.84,-6.26,3.65,-2.79,1.46,-3.95,-5.82,-3.89,-1.78,-4.67
-0.49,2.41,-4.14,-0.64,-0.27,-0.65,-4.28,-5.27,-5.88,-10.53,-1.04,1.9,-4.24,6.37,-1.7,-2.25,-2.66,-5.25,-1.21,-1.19,-3.75
0.65,0.83,-3.47,-0.59,-0.3,0.01,-2.68,-5.06,-4.82,-9.56,1.64,-0.93,-4.33,5.5,-3.16,1.82,-2.22,-4.5,-0.21,-1.45,-3.55
3.94,5.14,-2.77,1.3,0.4,-0.75,-1.43,-6.44,-5.61,-9.3,0.63,0.42,-3.18,7.04,-4.88,-1.73,-2.08,-5.65,2.64,-0.34,-3.82
6.15,5.74,-2.13,2.44,-0.97,-0.4,-2.07,-7.6,-6.29,-11.05,-1.79,3.93,-4.98,8.77,-4.6,0.64,-2.54,-6.99,4.6,-0.15,-4.84
3.09,4.89,-1.59,1.34,1.04,-1.71,-2.78,-8.54,-7.27,-11.49,-1.74,-1.21,-5.51,6.07,-4.54,-1.61,-2.68,-9.53,3.31,-0.27,-5.62
2.59,3.02,-2.17,-0.43,1.42,-2.56,-2.52,-8.29,-6.3,-9.53,-2.52,-1.11,-5.0,5.07,-2.29,-3.32,-2.97,-8.77,1.28,-0.04,-4.9
1.66,1.97,-2.24,-0.52,3.74,-2.65,-1.1,-6.9,-2.53,-6.56,-3.97,-0.95,-3.07,3.43,-0.43,-4.89,0.51,-8.07,0.74,2.05,-3.01
3.64,4.9,-1.33,-0.22,3.35,-2.67,-2.13,-5.8,-3.69,-5.51,-2.65,-1.36,-3.24,2.77,-1.43,-6.28,-0.45,-8.12,3.12,2.68,-1.34
3.8,4.0,-3.14,0.13,1.75,-1.56,-2.36,-5.29,-4.14,-3.95,-4.3,-2.09,-3.56,3.04,-3.72,-3.24,-2.96,-6.59,2.66,1.95,-1.63
5.66,5.48,-4.01,1.83,-0.35,0.23,-4.04,-4.85,-4.77,-3.52,-3.84,3.0,-4.73,7.44,-6.57,-1.61,-4.38,-4.23,4.75,2.82,-1.95
1.35,2.57,-4.55,1.3,-0.43,-0.12,-4.33,-5.59,-7.04,-5.26,-4.89,0.61,-6.18,5.19,-7.4,-3.74,-6.14,-5.82,1.34,3.51,-1.67
-0.17,2.24,-5.08,0.52,-0.13,-0.95,-2.54,-5.68,-6.3,-5.75,-2.75,-3.89,-5.17,6.04,-4.06,-3.14,-5.22,-5.5,0.2,3.68,-1.39
1.01,4.6,-4.98,1.95,0.16,-0.6,-2.16,-5.43,-6.24,-5.4,-7.38,-0.78,-6.0,9.75,-2.99,-0.69,-5.0,-5.01,0.45,2.96,-1.46
-0.41,3.26,-3.84,-0.44,1.18,-1.04,-2.08,-4.99,-6.86,-7.67,-7.95,-2.86,-6.24,3.59,-2.0,-0.65,-5.27,-6.07,-1.06,1.98,-1.86
1.12,4.27,-3.21,-0.73,1.86,-2.39,-0.89,-5.68,-4.53,-7.92,-6.88,-3.33,-4.71,5.94,-2.98,-3.6,-3.55,-6.31,-0.71,0.51,-3.22
2.41,4.17,-2.21,-1.43,3.29,-3.75,0.65,-5.74,-3.65,-7.15,-2.35,-3.21,-3.12,3.98,-1.72,-5.56,-0.76,-7.66,0.64,1.28,-1.91
2.33,0.09,-2.1,-4.42,4.86,-3.05,1.9,-5.04,-3.47,-7.29,-3.04,-4.99,-2.1,-1.74,-0.73,-5.77,-0.84,-6.44,0.01,2.96,-0.57
-1.2,-4.27,-3.17,-6.25,3.92,-4.71,4.04,-4.49,-2.59,-6.58,-0.53,-9.19,-2.06,-3.99,0.11,-7.79,1.69,-7.16,-2.52,1.44,0.35
0.1,-0.94,-2.4,-3.8,3.96,-3.41,4.25,-3.69,-0.44,-3.67,-0.65,-6.81,-3.17,-1.8,0.59,-6.31,1.08,-6.19,-1.49,0.83,1.13
0.24,-0.49,-2.73,-4.12,2.71,-4.38,3.56,-2.15,-0.18,-0.82,-2.1,-10.72,-2.74,-4.02,-1.2,-6.57,-0.25,-4.31,-1.27,1.02,1.05
-2.75,-2.07,-3.17,-3.24,1.71,-2.2,3.24,-0.4,1.61,2.39,-3.67,-9.71,-6.39,-4.24,-4.35,-5.38,-0.93,-1.06,-2.79,1.03,0.93
-1.05,-0.15,-4.17,-2.07,0.75,-0.08,0.18,0.8,-0.07,3.01,-9.63,-7.11,-7.97,-2.94,-6.14,-3.24,-3.77,1.38,-1.67,2.89,0.98
0.88,-1.89,-3.3,-2.67,-0.31,0.62,-1.69,1.8,-0.94,4.14,-11.2,-0.38,-4.96,-2.68,-4.51,-0.26,-6.4,3.99,-0.37,2.29,2.03
-2.4,-3.85,-5.26,-4.59,-0.91,1.03,-1.38,1.03,-1.55,2.87,-11.14,5.39,-5.03,-1.73,-3.46,2.26,-5.82,3.44,-2.71,0.44,1.26
0.58,0.54,-4.36,-2.8,-0.21,1.06,-1.18,0.3,-1.08,1.45,-9.09,3.31,-2.46,0.48,-2.34,-0.16,-5.31,1.19,-1.44,0.46,0.14
-2.46,-0.75,-5.85,-2.12,-0.68,-0.04,-1.18,-2.2,-2.01,-1.03,-8.97,3.64,-4.77,0.75,-4.66,-1.43,-5.84,-1.62,-2.81,0.62,-0.36
-2.69,0.9,-5.29,-0.41,0.99,0.31,0.13,-1.33,-1.45,-0.89,-4.55,0.63,-3.27,1.39,-4.86,-2.41,-4.44,-2.36,-3.05,1.1,0.43
-1.99,-0.26,-6.0,-1.61,0.36,0.39,-0.74,0.25,-3.09,-1.02,-6.56,0.69,-3.73,0.81,-2.86,-1.2,-5.73,-0.54,-2.19,0.41,-1.31
-0.69,1.45,-5.82,-2.1,0.22,0.25,-1.39,1.1,-4.02,-0.2,-7.91,-3.49,-3.54,1.62,-2.59,-1.6,-6.32,0.94,-1.89,-0.77,-1.5
1.32,1.39,-2.72,-4.54,2.24,-0.82,0.26,-0.2,-3.36,-0.69,1.16,-1.63,0.28,0.96,0.57,-1.61,-3.38,1.15,-0.34,-0.56,-1.82
-1.94,0.05,-3.15,-5.89,2.24,-2.34,1.25,-1.17,-2.08,-2.29,-1.38,-0.77,1.81,-0.1,5.4,-2.69,-0.6,-0.12,-2.59,-0.59,-2.65
-1.61,0.62,-3.98,-4.03,1.3,-2.28,0.74,-1.73,-2.45,-3.35,-2.93,-5.22,-0.97,0.31,2.95,-4.01,-1.64,-1.58,-3.07,-1.66,-3.02
-1.89,-2.07,-3.18,-4.12,1.42,-1.76,0.63,-1.24,-2.41,-1.91,-4.27,-3.61,-0.28,-0.63,1.82,-2.38,-2.54,-2.61,-2.74,0.45,-1.38
-1.36,-1.78,-3.21,-3.57,2.07,-1.54,1.47,0.93,-0.97,-0.76,-5.09,-4.23,0.25,-1.17,-0.77,-2.57,-3.13,-1.39,-1.99,0.99,0.01
0.53,2.2,-1.58,-2.16,1.98,-1.04,-0.37,-0.61,-3.44,-1.61,-6.63,-7.34,-1.55,0.05,-3.81,-2.76,-6.49,-2.12,-0.46,0.85,-1.51
2.78,-1.02,-0.44,-4.03,1.35,-1.01,-2.81,-3.55,-6.01,-4.85,-8.16,-4.71,-0.61,-2.3,-3.07,-3.81,-7.75,-3.93,1.41,0.87,-3.02
3.62,1.85,-0.01,-3.28,1.48,-1.29,-2.67,-2.56,-5.88,-5.25,-6.27,-8.08,0.85,-1.16,-1.4,-2.56,-8.1,-4.81,2.48,3.03,-2.51
0.77,1.91,-0.81,-3.54,1.71,-2.09,-2.84,-3.08,-5.22,-4.92,-8.34,-10.15,-1.95,-1.82,-0.94,-2.82,-7.69,-5.41,0.34,2.82,-2.47
2.42,1.01,0.5,-2.88,2.61,-1.85,-3.14,-2.54,-5.53,-2.4,-9.02,-8.2,0.04,-1.77,-1.33,-3.42,-7.45,-3.18,1.8,3.91,-1.83
5.06,6.15,1.85,1.21,2.74,-0.82,-2.44,-2.28,-3.64,-0.67,-2.67,-2.58,1.02,3.59,-0.43,-1.48,-5.03,-2.22,4.11,5.34,-2.15
3.19,5.5,2.25,0.16,1.68,-1.58,-5.15,-5.03,-7.03,-3.84,-7.64,-2.01,0.64,3.91,-2.15,0.46,-7.96,-3.18,3.33,3.3,-4.89
8.0,7.12,1.77,0.97,1.36,-1.18,-5.6,-4.86,-9.9,-5.56,-3.72,-1.46,1.94,4.5,-3.98,-1.81,-10.14,-2.71,5.55,3.14,-5.28
2.77,3.79,0.74,0.06,0.08,-0.37,-6.13,-3.65,-11.46,-7.7,-6.74,-3.28,-2.48,3.53,-5.75,-0.46,-11.31,-2.8,1.66,4.32,-4.91
1.92,5.7,-2.66,1.25,-1.16,1.68,-5.66,-0.66,-10.63,-6.98,-7.95,-3.97,-5.17,4.64,-9.5,1.42,-12.06,-0.51,0.91,4.07,-2.84
4.48,6.35,-2.17,3.71,-1.18,1.74,-6.2,0.92,-11.99,-7.55,-6.95,0.21,-2.72,6.72,-10.06,-0.03,-13.01,-1.24,3.09,3.15,-2.17
6.04,8.25,-1.39,4.82,-1.05,1.63,-5.31,-0.18,-11.21,-7.09,-5.05,-2.75,-3.42,6.11,-8.92,1.4,-12.68,-2.03,4.59,2.93,-2.41
4.23,6.65,-1.58,1.93,-0.68,0.24,-5.53,-2.17,-12.09,-9.38,-3.31,-1.85,-1.92,2.71,-6.02,1.17,-11.74,-4.56,2.5,1.55,-3.67
4.82,6.26,-0.8,2.36,0.86,0.27,-5.98,-3.52,-14.08,-10.35,-3.59,-4.43,-1.83,2.15,-3.48,1.76,-12.09,-6.23,3.94,2.15,-5.69
0.62,3.22,-2.38,0.75,-0.99,-0.06,-8.86,-5.67,-13.76,-10.51,-5.3,-8.04,-5.07,-0.02,-5.19,-1.58,-11.93,-6.46,0.95,1.62,-8.17
1.94,5.24,-2.12,1.35,-2.33,2.66,-8.66,-1.72,-11.61,-6.53,-5.67,0.2,-4.44,3.79,-6.73,3.31,-11.83,-2.01,1.92,2.25,-6.44
3.62,5.44,-1.12,3.17,-2.7,3.22,-9.22,-0.37,-12.36,-6.3,-3.33,-0.19,-2.52,4.95,-8.86,4.49,-12.72,-0.92,3.12,2.74,-4.89
2.69,4.56,-0.62,2.74,-1.86,2.47,-7.86,1.8,-10.7,-5.21,-5.08,-1.11,-2.84,3.91,-10.0,4.37,-12.53,-0.1,2.76,2.9,-3.2
5.23,7.97,-2.02,3.06,-1.28,2.05,-6.86,0.8,-10.85,-5.1,-1.19,1.12,-3.65,7.59,-7.09,5.83,-10.64,0.89,3.97,2.86,-2.93
4.13,5.78,-3.67,2.95,-2.48,2.53,-6.88,0.89,-9.77,-5.34,0.09,2.74,-4.36,8.11,-6.84,9.87,-9.28,1.09,2.4,2.33,-3.16
2.5,10.41,-5.36,5.74,-3.89,4.87,-6.66,1.32,-7.72,-2.48,-3.6,5.64,-5.49,12.1,-5.9,6.46,-8.6,2.94,2.16,3.13,-2.99
2.83,8.7,-5.6,4.55,-4.88,6.14,-7.91,1.5,-9.14,-4.73,-3.35,1.46,-5.88,11.7,-4.66,7.63,-10.4,1.61,1.88,5.22,-2.51
3.0,8.96,-5.17,4.39,-4.54,4.55,-9.51,-2.2,-12.08,-9.77,-7.56,-3.27,-7.9,8.08,-9.23,3.98,-12.88,-2.98,2.15,6.78,-4.17
5.8,8.83,-0.23,5.13,-1.23,2.13,-7.92,-5.14,-13.7,-12.54,-6.93,-1.98,-5.21,7.23,-7.19,1.13,-11.55,-6.23,6.11,6.17,-6.31
6.25,7.99,0.68,2.96,0.44,-0.33,-8.34,-7.14,-15.25,-15.35,-7.37,-4.3,-5.8,5.41,-10.18,0.18,-12.89,-7.91,5.85,4.88,-6.61
4.95,4.45,-0.42,0.46,0.87,-0.39,-6.64,-6.26,-14.73,-13.57,-12.95,-5.58,-9.3,2.77,-13.18,-0.08,-13.03,-7.01,4.05,4.39,-5.61
3.03,0.42,-0.1,-0.38,1.3,0.67,-4.81,-4.28,-12.82,-13.0,-10.41,-5.8,-9.07,2.02,-10.78,-0.36,-11.89,-7.26,2.21,4.79,-3.84
0.78,-0.6,-3.14,-0.31,-1.74,2.35,-5.63,-2.66,-14.01,-12.18,-13.69,-9.48,-11.99,1.9,-12.51,0.77,-14.41,-5.77,-0.07,5.06,-3.78
0.06,-1.54,-4.38,0.33,-2.41,3.08,-6.58,-1.92,-13.67,-11.18,-12.93,-8.82,-12.88,0.99,-14.31,-0.01,-15.5,-4.85,0.11,4.87,-4.06
3.41,2.49,-3.1,1.86,-2.52,2.73,-5.75,-1.07,-11.48,-8.89,-9.44,-4.29,-9.28,2.52,-13.29,-0.34,-13.5,-3.58,2.98,5.22,-2.35
2.49,5.72,-2.47,2.53,-0.89,0.1,-1.99,-0.62,-6.6,-6.08,-11.64,-3.18,-5.15,2.68,-7.95,-2.97,-8.79,-4.21,2.83,3.61,-0.14
1.32,4.8,-4.06,1.38,-0.7,1.35,0.26,2.03,-2.91,-2.52,-10.49,-4.81,-10.68,2.56,-8.03,1.83,-4.82,-2.17,1.51,4.65,3.25
0.32,2.39,-4.9,0.02,-1.21,1.31,0.52,1.83,-3.74,-3.86,-10.55,-9.41,-12.24,2.31,-9.97,3.52,-5.97,-2.63,0.22,4.6,3.49
1.21,0.36,-2.91,-1.79,0.38,-1.17,3.23,0.09,-1.72,-2.9,-10.6,-8.58,-11.03,-1.25,-6.9,-2.61,-3.27,-3.27,0.96,5.78,3.62
-1.15,-2.4,-0.98,-3.52,2.01,-1.67,1.3,-1.84,-3.71,-2.39,-10.74,-10.92,-9.86,-3.35,-8.77,-3.02,-4.8,-2.94,-0.56,5.43,1.95
2.21,-3.55,0.67,-2.61,3.2,-3.73,0.33,-5.34,-4.4,-4.7,-10.83,-9.09,-7.26,-2.42,-8.34,-5.99,-5.69,-6.38,2.07,5.06,0.61
2.84,0.03,3.38,-1.64,3.93,-4.39,-0.62,-7.56,-6.32,-7.75,-10.85,-9.8,-3.04,-0.87,-3.2,-6.6,-5.24,-8.94,2.07,4.13,-0.96
1.87,-0.84,1.04,-0.52,1.99,-2.53,-4.12,-8.8,-9.88,-11.14,-12.08,-9.49,-5.33,1.37,-4.29,-2.87,-6.97,-9.25,2.22,2.9,-2.78
2.43,-0.7,-0.73,1.95,0.99,0.11,-4.08,-6.48,-9.41,-9.81,-9.49,-7.74,-6.34,2.65,-7.34,-0.84,-7.03,-7.96,2.21,4.09,-1.77
2.85,0.09,-1.56,0.67,-0.5,0.85,-5.76,-6.77,-10.27,-10.76,-9.93,-8.01,-5.89,2.65,-6.08,-2.38,-7.3,-8.25,2.93,5.18,-2.26
1.18,-1.27,-3.83,0.2,-1.87,1.88,-8.65,-7.96,-12.58,-12.04,-11.03,-7.08,-8.38,-0.1,-10.42,-2.35,-8.8,-9.73,1.31,5.77,-3.55
1.84,2.12,-2.06,2.06,-2.2,2.99,-9.42,-9.17,-14.67,-14.7,-12.02,-9.19,-7.92,3.08,-10.93,-0.93,-10.75,-11.53,2.1,6.96,-4.94
4.27,2.4,-0.73,2.02,-0.91,2.14,-8.82,-7.92,-14.43,-13.58,-11.35,-7.64,-6.79,-0.29,-10.3,-2.07,-10.9,-8.96,4.15,7.46,-3.46
3.32,1.54,-2.08,-0.7,-0.53,0.16,-7.77,-7.71,-15.23,-13.13,-15.28,-9.32,-6.7,-3.28,-7.86,-3.83,-12.22,-9.88,2.36,7.36,-3.72
1.77,-0.49,-2.01,-2.23,1.74,-0.39,-4.06,-5.32,-12.18,-8.7,-13.69,-9.22,-6.57,-1.64,-5.92,-2.29,-9.79,-6.74,0.8,6.88,-1.03
0.64,-4.13,-3.38,-5.06,2.47,-3.34,-0.95,-5.48,-9.06,-8.02,-14.05,-7.39,-6.26,-5.11,-6.63,-9.55,-8.07,-8.24,-1.09,5.72,0.95
0.37,-3.19,-2.06,-5.2,3.43,-2.37,0.43,-4.9,-8.15,-7.35,-13.6,-9.73,-7.52,-4.76,-7.64,-8.65,-7.38,-9.41,-0.74,6.58,2.25
-0.54,-4.47,-2.13,-6.01,2.13,-2.32,1.01,-2.39,-4.71,-3.82,-16.59,-9.54,-7.55,-2.82,-8.73,-6.3,-6.23,-6.49,-1.51,6.47,3.67
0.9,-2.04,-0.55,-5.13,3.87,-3.6,3.23,-1.77,0.39,0.06,-9.24,-7.45,-5.8,-3.29,-8.16,-5.41,-2.36,-4.94,-0.63,6.72,5.44
3.66,0.71,-0.04,-4.5,3.25,-3.63,3.95,-1.19,3.58,2.19,-7.9,-6.78,-5.3,-2.3,-6.42,-5.1,0.12,-3.71,2.44,6.42,6.73
2.02,-1.46,-2.04,-4.53,2.61,-2.5,2.17,-1.51,2.65,2.3,-7.49,-5.84,-5.16,-2.35,-5.3,-3.33,-0.93,-3.22,0.99,4.57,4.56
0.92,-1.07,-3.8,-4.22,1.99,-2.59,0.15,-2.43,0.77,0.47,-9.26,-6.37,-5.26,-4.43,-3.15,-6.04,-2.13,-2.45,-0.08,2.53,3.62
0.82,0.37,-4.24,-2.46,1.3,-0.62,0.82,-1.33,0.09,2.47,-6.59,-5.09,-6.07,-3.3,-6.12,-4.9,-2.45,0.12,-0.73,3.72,3.54
1.35,-0.5,-4.3,-2.54,-0.36,0.46,-1.16,-2.16,-3.4,-1.45,-8.02,-4.85,-6.18,-1.23,-6.79,-2.25,-4.17,-1.87,-0.25,3.97,2.57
1.17,-2.58,-2.97,-2.45,-0.25,-0.15,-0.58,-2.92,-2.1,-0.57,-6.21,-4.67,-4.63,-0.26,-6.39,-2.14,-2.71,-2.14,-0.17,4.2,2.41
4.2,0.72,-1.89,-0.22,-0.8,0.34,-0.61,-4.43,-2.16,-1.51,-3.7,-1.22,-2.58,2.65,-7.08,-2.44,-2.09,-1.49,3.65,3.55,1.93
6.07,5.29,-0.9,2.98,-0.4,0.3,-1.27,-2.91,-0.0,-0.66,-0.48,1.96,-2.42,5.28,-4.92,-1.99,-1.51,-1.67,5.06,3.93,3.25
6.23,3.25,-2.45,3.53,-2.58,2.55,-3.36,-2.29,-1.53,-1.42,-2.53,1.22,-2.93,4.25,-5.07,4.17,-3.36,-0.6,5.75,4.74,2.14
8.21,8.1,-2.79,4.35,-2.6,2.3,-5.68,-5.1,-6.33,-7.18,-3.57,-1.7,-3.27,7.13,-5.48,4.93,-5.91,-3.0,6.95,4.34,-0.26
7.36,7.53,-3.22,4.33,-1.46,2.18,-4.63,-4.44,-6.33,-7.76,-3.52,-1.47,-3.19,6.98,-6.05,-1.15,-6.34,-3.43,6.85,5.69,0.68
5.11,5.45,-5.87,1.71,-1.57,1.86,-4.43,-4.07,-6.74,-6.38,-7.1,-3.4,-5.74,4.64,-6.89,-0.97,-8.32,-3.22,4.08,3.75,0.13
2.91,0.22,-6.54,0.22,-1.19,1.68,-2.79,-0.94,-3.51,-1.35,-5.86,-1.94,-6.6,2.51,-8.12,-1.93,-6.69,0.27,2.37,4.2,2.52
1.64,-0.02,-6.35,-0.11,-1.17,0.45,-1.05,2.76,0.31,3.99,-4.1,4.22,-7.31,2.79,-10.62,0.11,-5.79,4.84,1.56,3.86,4.04
5.32,0.63,-4.24,0.67,0.44,-0.9,-0.31,3.14,2.4,6.61,-0.2,3.65,-6.6,4.66,-9.37,2.32,-2.92,5.31,4.97,4.89,4.42
2.28,-0.0,-4.54,0.51,-0.01,-0.87,-0.03,2.92,3.27,7.64,0.05,1.82,-8.24,4.79,-9.35,0.91,-2.88,4.74,2.95,4.86,3.44
3.92,1.76,-4.62,0.56,0.51,0.59,0.16,3.6,5.18,7.67,1.5,2.33,-6.26,5.1,-7.12,0.63,-1.74,6.42,3.71,5.11,4.27
2.21,3.37,-6.69,2.23,-1.48,2.02,0.42,3.65,5.7,6.8,-0.73,0.13,-7.55,4.53,-5.63,-1.61,-2.12,4.59,2.66,5.44,3.69
1.82,2.57,-9.33,1.28,-4.47,4.43,-2.43,2.99,2.63,3.28,-1.56,-2.89,-9.28,3.85,-7.52,1.31,-4.92,3.82,1.24,4.52,1.51
1.42,-1.15,-8.93,1.0,-3.8,4.87,-2.75,2.97,1.91,2.69,-3.18,-0.72,-8.55,2.67,-7.93,1.66,-4.94,3.6,0.29,5.22,2.55
3.1,-0.79,-8.52,-0.54,-3.37,2.55,-4.58,0.86,0.25,2.48,-3.2,-1.66,-7.78,2.73,-9.32,2.73,-6.6,3.66,2.36,4.98,-0.05
4.65,1.65,-5.41,0.55,-0.36,1.45,-2.7,0.39,0.86,3.81,0.22,-0.41,-4.7,4.2,-6.75,0.36,-4.74,3.34,3.92,6.74,2.1
1.8,-1.89,-5.41,0.13,-0.21,1.55,-3.41,0.54,-0.45,1.65,-3.86,-3.33,-7.36,1.02,-8.35,0.28,-5.56,1.53,1.66,6.47,2.23
1.12,-0.27,-6.18,1.6,-0.95,0.94,-5.59,-3.27,-4.15,-4.75,-6.13,-5.49,-7.41,2.89,-10.88,0.73,-8.17,-2.66,0.76,5.09,-2.03
0.26,1.09,-6.53,2.84,-1.32,1.84,-6.48,-4.96,-5.57,-6.19,-7.72,-7.11,-11.21,4.01,-12.6,-3.76,-8.87,-4.84,1.25,4.52,-2.35
3.16,1.02,-5.29,2.87,-1.6,1.64,-5.51,-5.46,-5.21,-6.15,-8.98,-8.81,-8.31,2.41,-11.22,-3.88,-7.92,-5.65,2.41,4.47,-3.32
1.53,-0.0,-5.54,3.75,-0.48,1.33,-5.83,-5.8,-4.31,-5.52,-8.45,-8.02,-10.31,3.14,-8.85,-3.53,-7.01,-5.73,2.16,4.67,-3.73
-5.92,-5.37,-7.04,1.35,-1.03,0.59,-4.81,-5.83,-3.62,-3.67,-16.65,-8.43,-15.53,0.91,-8.46,-4.9,-5.43,-5.8,-3.16,6.31,-2.55
-3.4,-10.99,-4.24,1.03,0.7,-0.35,-4.31,-4.8,-2.77,-2.41,-14.6,-9.05,-13.17,-3.1,-7.9,-6.53,-4.42,-5.3,-0.89,7.59,-2.49
8.44,7.65,0.38,2.13,0.95,-0.72,-7.03,-6.11,-5.96,-2.68,-1.38,-5.65,1.5,2.2,-4.07,-4.06,-5.53,-4.79,6.75,5.16,-4.93
2.94,-4.74,-0.57,-2.0,1.25,-1.44,-6.67,-5.9,-6.47,-3.75,-8.33,-11.83,-4.23,-9.35,-9.08,-8.43,-6.41,-6.85,3.33,5.53,-3.95
8.37,0.74,3.58,-0.02,3.03,-2.59,-4.61,-7.68,-6.94,-6.42,-4.41,-13.5,3.61,-9.6,-5.54,-12.0,-5.96,-11.59,7.47,6.32,-2.66
6.37,-0.35,3.56,-0.05,3.09,-3.68,-3.5,-7.79,-6.25,-8.17,-6.03,-16.75,0.77,-12.38,-5.71,-12.89,-5.87,-12.93,6.36,5.82,-1.61
8.57,1.06,3.94,1.04,3.22,-4.29,-2.29,-7.87,-5.68,-8.31,-5.6,-14.49,3.11,-11.54,-3.66,-12.92,-4.8,-14.38,7.12,5.41,-2.08
7.18,0.91,2.92,0.09,3.65,-3.56,-0.53,-6.5,-2.65,-6.19,-5.69,-13.86,1.66,-10.26,-2.85,-10.36,-2.59,-11.83,6.11,4.92,-0.19
9.6,3.12,3.86,0.07,3.51,-3.56,1.18,-4.0,0.85,-1.49,-0.69,-9.42,6.55,-7.04,1.86,-9.31,0.31,-9.34,7.22,3.68,0.89
6.45,-0.97,1.74,-2.48,2.53,-3.85,2.23,-1.58,3.1,1.34,-4.75,-8.31,3.31,-8.69,1.8,-7.3,1.63,-6.35,4.37,2.58,1.55
2.7,-4.64,2.25,-1.9,3.51,-3.33,3.22,0.15,6.24,4.95,-2.99,-5.08,3.29,-8.99,2.18,-6.51,4.58,-4.9,3.41,3.34,2.94
11.74,4.3,6.91,0.16,3.67,-4.08,3.41,-1.36,7.84,5.75,-1.52,-5.04,10.76,-4.03,2.72,-6.02,5.15,-4.16,10.1,3.75,1.61
15.75,14.2,8.74,2.74,4.63,-5.03,2.94,-2.84,8.29,5.92,4.37,-2.39,14.09,-1.44,4.57,-6.19,5.74,-4.32,12.02,1.73,0.03
14.86,11.09,8.82,0.2,5.73,-5.49,1.88,-5.02,6.09,4.05,2.3,-5.21,14.3,-3.87,3.71,-7.27,3.39,-6.49,11.77,1.13,-1.42
15.61,13.68,7.07,-1.09,5.44,-6.07,1.31,-5.81,4.01,2.77,-3.52,-6.64,9.69,-1.55,1.7,-7.21,0.53,-7.53,10.26,-0.5,-1.35
22.16,21.47,8.68,0.54,5.58,-6.19,0.82,-6.14,1.83,1.3,-2.36,-6.13,13.33,-1.76,3.47,-8.38,-1.0,-8.05,15.8,0.58,-1.91
29.54,32.52,12.9,4.83,3.67,-3.31,-4.15,-6.96,-2.69,-2.66,-2.95,-11.27,18.73,6.73,2.93,-0.36,-4.15,-6.68,21.23,1.73,-5.58
35.19,41.89,14.37,8.55,3.83,-4.28,-6.18,-9.1,-3.56,-3.53,-2.37,-9.27,22.3,11.24,4.2,-4.7,-5.04,-6.95,27.63,1.55,-7.16
41.04,53.27,14.65,12.75,4.15,-3.56,-5.29,-9.96,-2.98,-3.07,-8.92,-12.96,19.77,10.16,5.71,-6.18,-4.35,-8.69,31.72,1.92,-7.16
41.77,60.71,12.87,13.58,2.28,-4.08,-5.69,-10.19,-2.17,-2.21,-9.4,-16.02,18.25,14.93,4.43,-5.31,-4.65,-9.14,32.84,-0.61,-7.32
54.73,81.78,16.1,16.53,3.06,-3.46,-3.97,-8.45,1.95,2.58,-3.38,-8.15,27.83,24.73,3.69,-4.44,-2.67,-6.49,41.12,-1.05,-6.36
57.2,89.84,14.41,18.3,2.1,-1.5,-2.62,-5.45,4.28,4.99,-2.92,-11.79,26.28,27.27,3.77,-1.48,-0.26,-3.85,42.89,-1.0,-4.84
59.4,93.69,15.13,19.78,0.25,-0.33,-3.35,-4.39,4.67,4.07,-9.94,-12.95,25.89,30.71,-0.01,-0.3,-1.66,-2.36,44.52,-0.25,-5.5
67.93,105.0,18.19,21.01,0.68,-1.0,-4.21,-4.41,1.8,0.25,-7.46,-14.21,32.14,34.34,3.38,1.28,-1.45,-3.39,51.43,-0.9,-5.86
64.08,99.25,16.43,20.15,1.42,-2.01,-4.13,-6.24,-0.73,-3.23,-13.27,-17.51,26.31,28.73,2.1,-1.83,-1.96,-5.31,47.96,1.07,-6.46
70.23,105.4,19.56,19.97,2.19,-3.74,-5.76,-9.03,-4.01,-8.11,-8.69,-18.98,32.53,29.02,4.15,-4.99,-1.95,-7.03,53.17,1.21,-9.21
63.79,100.39,18.32,18.56,3.5,-3.41,-6.08,-11.64,-5.71,-12.13,-8.24,-20.37,31.31,26.38,4.75,-6.12,-1.06,-9.13,48.61,1.64,-10.84
58.71,93.49,15.76,16.69,2.71,-2.45,-7.25,-11.81,-6.26,-12.04,-9.9,-16.89,26.96,27.63,4.28,-6.44,-0.7,-9.13,44.6,0.14,-12.3
55.83,91.69,14.85,17.78,1.68,-1.76,-6.71,-10.71,-5.46,-11.71,-8.34,-15.21,26.1,26.93,4.03,-6.3,0.18,-10.08,41.52,-0.91,-10.21
53.69,85.51,14.43,16.09,2.18,-2.94,-4.15,-9.95,-2.96,-11.64,-6.86,-15.31,27.51,23.85,7.07,-5.21,2.04,-11.24,39.88,-2.25,-8.55
51.78,82.36,15.82,15.53,3.72,-4.25,-1.48,-9.43,-0.77,-8.61,-2.95,-12.14,27.61,25.1,8.27,-2.94,4.7,-10.05,38.82,-0.4,-6.39
47.2,71.71,15.14,13.34,6.04,-5.56,1.85,-10.27,0.85,-7.2,-3.83,-14.61,26.42,18.56,10.9,-3.76,5.73,-10.25,36.05,1.0,-4.47
40.44,62.1,13.71,9.23,8.54,-7.58,3.72,-8.18,3.11,-2.33,-0.97,-11.45,26.01,12.79,12.89,-9.4,5.92,-6.64,30.58,-0.09,-2.68
32.99,53.78,9.11,6.11,5.66,-5.85,2.19,-7.58,3.55,-1.13,-3.83,-9.44,20.77,10.91,8.04,-3.54,5.94,-4.75,23.82,-2.01,-2.86
27.64,49.16,5.4,6.52,3.05,-2.6,-0.56,-4.34,0.28,0.73,-2.6,-8.56,17.36,12.84,6.7,-0.05,1.73,-3.41,19.17,-3.74,-3.26
24.12,45.49,2.65,5.24,1.97,-1.99,-0.4,-1.8,2.28,2.63,1.13,-2.44,17.18,14.53,9.17,1.38,4.28,-1.13,16.27,-5.42,-2.55
21.74,43.57,3.29,4.86,2.1,-1.12,0.74,-1.2,3.98,3.36,4.61,-0.47,15.99,14.08,9.3,4.61,7.01,-0.64,14.75,-3.78,-1.47
20.39,39.16,3.49,5.1,1.01,-0.49,2.86,1.16,8.28,7.81,5.78,5.21,14.36,13.2,9.17,5.58,9.95,1.17,14.68,-1.74,0.6
19.85,35.78,3.06,6.67,-1.09,0.29,1.01,1.18,9.8,9.96,7.65,5.55,12.69,13.91,6.33,8.72,9.69,3.61,13.69,-1.38,-0.44
13.83,27.73,2.52,5.43,-1.5,0.4,-1.59,-1.25,7.87,7.37,11.63,4.45,11.21,11.68,4.84,5.3,8.16,4.09,10.03,-2.51,-4.12
8.62,21.22,2.33,4.06,-1.39,0.31,-3.86,-4.18,3.72,2.34,9.38,5.37,10.81,10.09,4.48,6.53,4.36,1.33,4.81,-3.82,-6.81
6.91,18.78,1.39,4.85,-0.61,1.01,-3.89,-3.81,3.3,1.78,10.35,3.39,9.09,8.38,5.87,6.15,4.4,2.03,5.11,-3.77,-6.62
5.01,14.21,0.6,3.28,0.55,-1.28,-2.49,-5.68,2.88,-0.78,11.76,4.64,9.46,4.28,6.42,0.98,6.22,-2.94,3.03,-3.36,-6.97
8.19,12.92,0.42,1.6,1.18,-1.2,-2.67,-4.87,1.15,-1.19,10.8,7.02,10.33,2.02,8.06,2.06,5.44,-2.09,4.99,-3.01,-6.0
5.75,9.44,-0.43,1.16,0.22,-1.04,-2.65,-3.31,2.36,1.92,16.62,9.12,9.94,2.25,9.35,4.01,7.37,-1.09,3.42,-3.2,-4.27
5.93,9.87,1.18,1.16,1.28,-1.78,-1.56,-2.33,3.6,3.99,19.05,9.79,11.31,3.58,10.64,5.19,8.12,2.03,3.99,-2.44,-3.97
2.6,4.24,1.03,-1.07,1.37,-1.2,-1.83,-0.91,4.26,6.0,17.56,15.25,9.72,1.21,11.14,4.34,7.2,4.58,1.34,-1.59,-4.93
4.74,9.5,-0.73,2.73,-1.18,1.39,-0.48,-0.62,-1.72,0.8,5.77,9.87,2.03,11.44,-3.33,5.82,-0.82,4.51,4.56,-0.01,-1.62
1.12,7.26,0.1,0.0,0.0,0.45,1.83,0.99,1.85,1.88,5.53,7.44,4.03,10.07,3.05,9.54,5.41,6.67,-0.01,-1.32,0.06
3.32,8.83,1.03,0.63,-1.93,1.78,0.27,0.39,1.2,1.85,9.44,16.44,7.58,10.73,3.5,10.73,4.21,6.76,1.91,-4.09,-2.01
0.87,7.17,-0.41,0.26,-0.71,1.57,-0.2,-0.63,1.05,0.74,8.46,9.59,7.38,7.98,4.03,9.75,4.79,4.9,-0.39,-3.28,-2.41
1.6,5.05,1.02,-1.78,0.84,-0.18,0.64,-1.33,1.77,0.25,6.89,10.03,7.0,5.74,7.14,3.42,4.74,3.99,0.29,-1.38,-1.28
-2.53,3.47,-2.21,-2.39,0.08,0.59,-0.1,0.39,-0.6,-1.61,4.61,8.83,3.08,4.99,5.7,3.96,2.79,3.7,-3.11,-1.04,-1.31
-2.05,0.18,-1.99,-3.93,0.91,0.36,-0.09,-1.31,-0.05,-2.12,1.96,2.17,1.23,-0.84,2.97,1.49,1.94,2.41,-2.29,0.56,-1.0
-2.21,2.08,-1.51,-1.99,0.1,0.21,0.75,-1.59,0.29,-0.59,-2.44,6.05,-0.52,2.13,0.19,3.39,0.81,3.61,-2.43,0.95,0.05
-2.57,-2.58,-0.42,-3.29,-0.14,0.01,-0.65,-2.52,-0.75,-3.06,1.34,2.56,0.38,-3.4,0.46,0.28,-0.26,2.33,-3.13,0.44,-0.21
0.12,-0.06,1.62,-2.36,1.27,-0.71,-0.22,-4.09,-1.52,-5.74,-7.83,0.65,2.28,2.36,4.08,-0.58,0.03,-0.93,-0.63,1.85,-1.96
1.85,4.33,2.72,0.55,1.26,-0.64,-1.38,-5.34,-3.21,-6.49,-1.16,2.86,2.05,4.89,0.5,3.07,-2.19,0.26,1.88,0.91,-3.41
-0.43,3.42,2.45,0.37,0.31,0.7,-0.19,-3.71,-1.66,-5.73,1.3,5.17,1.58,3.94,-1.42,3.99,-0.31,1.03,-0.9,1.37,-2.72
1.15,4.76,1.26,1.71,-0.83,1.45,-3.42,-5.62,-4.94,-7.82,-3.2,1.24,-0.03,5.57,-0.73,4.42,-4.67,-0.82,0.39,0.84,-4.66
-2.07,0.83,-1.49,1.4,-3.2,2.38,-3.61,-3.79,-4.12,-7.29,2.05,-1.0,-2.49,2.43,1.08,2.85,-2.55,0.83,-1.53,1.04,-3.99
-0.79,0.77,-2.08,-0.55,-2.38,0.33,-2.44,-5.63,-2.96,-7.1,-3.07,1.02,-2.76,2.13,1.25,1.16,0.45,0.73,-0.04,-1.69,-5.65
-0.09,3.01,-0.08,-0.15,-0.33,0.95,-1.78,-5.04,-0.59,-5.73,0.69,-0.21,-0.35,2.87,-1.0,2.15,1.51,0.71,-0.31,0.23,-4.42
3.96,7.52,2.82,1.78,1.28,-0.38,0.07,-4.15,1.51,-2.06,4.56,1.84,1.54,5.48,0.2,2.06,4.04,1.34,4.03,1.81,-2.83
1.86,4.11,2.96,2.63,1.79,-0.13,-1.46,-4.07,0.02,-0.25,4.01,0.27,1.4,4.54,-0.74,0.82,0.95,0.98,1.32,2.16,-2.09
0.24,-0.57,1.95,1.68,-0.05,0.94,-2.6,-1.11,0.98,1.06,2.31,-6.58,0.46,-0.69,4.92,3.42,2.1,3.94,0.17,1.55,-1.7
1.18,2.23,3.02,2.74,-1.29,1.07,-2.39,-0.81,1.3,0.46,4.04,-4.06,4.53,4.38,7.44,3.49,3.22,4.59,0.8,-0.24,-2.94
4.36,8.77,3.56,3.74,-1.48,2.94,-2.01,-0.1,3.05,2.45,4.69,2.37,5.16,7.5,4.67,8.17,4.01,6.16,3.74,-0.4,-1.74
-1.08,3.5,0.7,0.83,-2.13,2.24,-1.92,0.79,3.69,3.32,-3.49,5.64,-1.43,7.48,-1.2,8.45,1.79,7.44,-0.51,-1.61,-0.48
1.97,5.08,2.92,0.86,-0.64,2.04,-1.03,0.4,1.91,0.87,-7.85,6.51,0.82,5.35,-1.2,2.61,0.98,3.83,1.63,0.47,0.8
3.16,7.58,3.87,1.3,0.1,1.04,-0.73,-0.31,-0.87,-1.91,-7.55,8.7,1.15,8.13,-0.49,3.7,0.75,3.01,2.57,1.52,1.12
3.32,8.66,2.87,2.83,-1.6,2.24,-2.69,-2.29,-2.41,-4.33,-6.29,10.92,2.09,8.72,-0.22,6.22,-1.49,3.5,2.91,0.47,-0.73
1.09,7.17,2.04,0.11,-1.51,1.65,-2.64,-1.44,-2.25,-4.72,-7.25,10.25,0.63,6.17,0.2,4.24,-1.32,3.93,0.87,2.08,-0.22
2.71,7.05,2.52,-0.28,0.26,-0.06,-2.34,-3.07,-2.68,-5.65,-6.28,8.48,1.22,7.59,0.45,3.15,-1.38,3.53,2.28,3.18,-0.4
-3.41,0.16,-0.56,-3.09,0.69,-2.11,-1.43,-2.81,-1.23,-5.22,-7.26,2.08,-3.18,0.98,3.19,-0.43,1.34,2.63,-3.59,2.41,-0.14
-5.52,-6.58,-1.52,-7.83,4.28,-3.32,3.15,-1.97,2.24,-4.22,-11.58,-4.92,-3.93,-5.86,8.03,-5.88,5.12,1.85,-4.51,3.19,2.45
-4.82,-5.05,-0.91,-6.35,3.43,-3.04,3.89,0.92,3.22,0.93,-6.03,-2.37,-2.92,-3.93,5.24,-3.52,3.15,3.0,-5.01,4.63,4.95
-1.31,-0.92,-0.95,-3.01,2.01,-0.78,4.12,5.86,7.89,8.01,0.21,1.51,-0.79,-0.43,-5.41,0.68,3.49,9.25,-1.29,6.12,6.7
-3.88,-0.6,-1.93,-2.76,1.53,0.48,4.34,6.63,10.42,10.99,3.53,4.5,-2.55,0.06,-1.73,3.5,6.61,11.38,-3.44,4.94,7.11
-2.58,0.62,-2.12,-2.06,1.05,-0.11,3.18,5.99,7.39,10.87,4.2,5.75,-2.34,0.49,-0.91,3.21,4.05,12.06,-2.69,4.27,5.29
-2.07,0.4,-2.0,-1.72,1.51,0.4,2.85,4.26,7.85,9.5,3.15,6.49,-0.29,0.71,4.93,1.83,4.92,10.73,-3.73,4.25,4.18
-4.29,0.16,-4.54,-2.95,-0.99,1.01,-0.24,2.79,3.6,5.56,-5.81,0.67,-3.88,0.39,3.19,3.86,0.47,6.75,-3.62,1.29,1.7
-7.79,-6.05,-6.46,-3.18,-1.65,1.88,-0.38,3.28,2.96,5.05,-9.03,-6.02,-8.24,-2.92,-1.79,-1.35,-1.52,4.92,-7.85,2.77,3.38
-7.88,-5.1,-10.08,-2.21,-3.84,3.76,0.52,7.47,5.47,8.28,-9.51,-6.17,-12.47,0.37,-9.49,4.48,-2.55,7.94,-7.43,3.95,5.97
-11.36,-7.0,-10.54,-1.56,-3.78,4.79,3.03,10.26,8.79,10.44,-10.33,-6.3,-12.52,-0.16,-6.16,3.13,-0.65,9.16,-10.15,3.88,8.4
-11.19,-8.12,-11.91,-1.99,-3.85,4.43,2.52,8.69,7.22,7.73,-7.5,-4.71,-13.54,-0.37,-2.62,3.05,-1.79,7.69,-10.66,4.3,8.06
-13.93,-11.11,-10.7,-2.6,-2.85,4.25,-0.33,7.17,3.69,4.7,-11.18,-7.89,-13.43,0.43,-6.33,0.93,-6.31,5.14,-12.79,4.26,6.18
-7.15,-6.03,-6.99,-1.26,-2.17,3.15,-2.08,4.19,2.22,1.11,-10.74,-4.61,-10.92,-0.43,-5.77,-2.82,-4.07,2.35,-6.08,4.35,4.36
-7.9,-6.08,-5.83,-0.29,-2.54,3.38,-4.05,0.1,-0.71,-3.73,-10.71,-5.94,-10.91,-3.42,-5.64,1.0,-6.7,0.49,-6.92,3.93,2.19
-1.78,-1.03,-2.0,2.39,-0.73,1.97,-3.45,-1.05,-0.5,-4.06,-4.59,-4.67,-6.1,-0.32,-5.58,-2.66,-3.93,0.14,-1.23,4.31,1.05
-1.94,1.14,-1.95,3.59,-2.09,3.03,-3.42,-1.59,0.18,-3.81,-3.99,-3.74,-4.0,3.9,-6.41,4.13,-3.08,2.09,-1.57,2.23,-0.73
-2.61,0.75,-2.74,1.95,-2.5,0.83,-2.86,-2.58,1.58,-2.71,0.86,1.61,-5.66,2.77,-4.77,2.09,-1.22,2.89,-1.61,1.99,-1.25
-0.57,5.96,0.51,4.19,0.43,-0.13,-3.06,-5.38,-1.39,-6.72,1.62,0.61,-2.13,9.18,2.39,0.53,-0.33,0.55,0.03,1.61,-3.02
0.8,4.18,1.29,4.13,0.47,-0.38,-1.63,-4.53,1.57,-4.91,-0.6,1.22,-1.9,6.61,-0.47,-0.19,1.9,0.46,1.38,1.08,-1.66
-0.9,2.53,0.53,2.29,-0.6,0.54,0.95,-2.43,5.37,-1.78,1.33,5.69,-3.51,4.58,5.29,1.98,4.71,3.56,-0.99,0.45,-0.69
-1.66,-1.74,0.3,0.95,-0.75,1.21,0.58,-0.65,3.77,-0.11,-0.78,4.63,-2.78,-2.56,0.77,-1.29,3.7,2.61,-1.6,0.85,0.08
-4.35,-0.56,-3.11,1.28,-2.28,2.21,1.45,1.31,4.59,-0.6,-1.97,-7.71,-5.34,2.46,-4.3,1.4,5.76,3.59,-4.5,-1.8,-0.79
-4.05,0.35,-1.9,-0.2,0.24,0.66,2.45,2.31,7.55,4.29,-1.15,-3.46,-7.32,-0.13,-4.4,-1.76,7.46,4.01,-4.0,-0.7,0.48
-4.64,-0.7,-0.71,-0.59,0.22,0.29,-0.27,1.06,3.99,2.03,-3.78,-4.26,-5.22,0.25,-3.69,-1.78,4.62,2.87,-4.48,0.32,-0.78
-3.48,-4.31,2.3,-0.65,0.49,-0.01,-0.8,0.39,4.85,1.9,-4.54,-6.86,-5.51,-2.69,-5.52,0.08,4.4,2.7,-2.58,1.76,-0.58
-2.06,-3.62,2.24,1.31,0.35,-0.39,0.09,3.5,6.81,5.48,-4.16,-2.74,-6.86,-1.97,-6.09,-3.25,3.39,5.3,-1.86,3.59,0.87
-1.4,-4.43,2.45,-0.12,0.06,-0.46,0.91,4.3,6.92,5.03,-5.18,-1.71,-7.18,-3.29,-4.33,-1.82,3.16,6.04,-0.32,4.45,1.96
-8.49,-9.47,-0.2,-1.89,1.43,-0.42,4.3,5.5,12.12,7.6,-6.98,-1.69,-11.02,-5.28,0.12,-4.01,7.89,6.93,-6.82,4.87,4.6
-7.67,-11.78,-0.62,-2.68,1.18,-1.09,4.76,6.9,13.08,8.88,-3.67,-2.05,-7.49,-5.32,3.65,-2.75,10.49,7.76,-6.57,2.97,5.55
2.75,3.31,4.89,0.41,1.38,-0.53,3.65,4.42,10.27,6.49,5.01,-1.03,6.86,-0.24,11.36,4.27,11.95,8.4,1.2,0.07,2.94
3.23,5.61,3.72,3.1,-0.22,1.28,3.52,3.23,11.54,5.94,3.83,1.0,3.72,3.07,3.36,3.98,13.49,7.8,2.66,0.29,2.43
11.49,21.45,6.47,8.34,-1.9,1.98,0.51,2.41,8.41,4.45,5.62,1.79,8.83,14.18,2.05,8.23,8.1,7.51,8.75,-0.78,0.64
10.79,22.14,5.42,9.86,-2.17,2.1,-0.1,2.67,5.45,4.06,4.8,0.62,5.09,17.72,-0.2,7.39,4.77,8.52,9.33,-1.32,-0.33
6.8,19.4,3.32,7.5,-2.79,2.57,-0.22,3.43,7.24,6.35,6.23,5.85,3.86,15.11,3.0,7.62,7.18,10.25,5.83,-1.73,0.11
4.45,12.81,2.47,5.92,-2.06,3.26,0.03,4.35,5.55,3.88,1.15,1.6,-0.1,10.49,6.63,5.18,5.97,10.28,3.84,-0.43,0.8
2.97,10.04,1.46,4.8,-2.19,2.45,0.95,2.38,4.46,3.11,0.25,-0.9,0.17,8.57,10.22,5.08,7.33,8.93,2.01,-1.46,-0.77
2.28,7.93,2.14,4.52,-1.42,2.7,1.82,2.56,7.08,5.84,2.77,-1.9,-1.37,5.5,1.23,4.9,8.98,9.82,1.54,-0.18,-0.36
3.4,7.64,2.38,4.8,-2.25,2.64,1.75,1.58,6.66,5.01,1.37,2.68,-1.65,3.82,-1.66,5.68,9.09,9.52,2.09,0.57,-0.01
3.69,7.06,2.7,2.66,-0.8,0.55,1.25,2.35,5.05,5.01,-0.06,-1.34,-3.11,2.14,-1.91,4.63,6.42,9.04,3.33,1.8,1.6
1.66,6.37,1.27,0.53,0.25,-0.28,3.47,3.69,4.71,4.6,-1.9,-7.53,-3.06,-2.82,0.34,-0.4,7.75,7.15,0.62,1.58,3.51
2.09,5.4,-0.72,-0.62,1.99,-1.55,4.79,3.2,4.52,1.71,-1.4,-5.22,-4.61,-2.01,2.86,-3.13,9.49,7.01,1.39,2.43,3.54
-2.49,0.61,-2.19,-4.19,2.54,-3.82,5.58,2.87,5.47,2.21,-0.56,-6.92,-5.36,-3.44,0.78,-5.54,9.59,5.88,-3.31,0.33,3.6
-2.08,-1.18,-2.08,-4.53,3.44,-3.89,6.17,2.46,5.13,2.24,-0.6,-5.17,-3.82,-4.17,4.02,-5.71,10.84,5.54,-2.65,-0.33,4.23
-1.57,1.16,-1.3,-4.33,3.23,-3.33,6.09,1.1,5.94,3.35,-0.48,-3.5,-1.7,-6.84,3.72,-4.42,11.43,3.86,-2.88,-1.04,3.72
-1.72,-0.05,-1.26,-5.23,2.73,-3.27,7.67,2.84,8.97,4.81,0.42,-5.87,-4.12,-10.25,5.04,-4.14,11.92,4.17,-2.51,-0.77,6.15
-4.24,-2.39,-0.95,-5.3,2.78,-3.23,8.67,2.86,10.5,6.06,-4.46,-7.02,-5.02,-10.78,2.55,-5.99,14.52,2.59,-4.35,-0.96,7.2
-2.93,-2.35,-0.89,-5.03,2.91,-3.56,8.86,3.52,10.28,7.78,-1.26,-5.77,-5.13,-8.79,1.84,-3.37,13.07,3.18,-3.22,-1.02,7.43
-4.54,-3.73,-2.28,-2.92,1.39,-2.8,8.48,7.53,12.56,11.57,-1.51,-4.25,-5.4,-6.74,-0.64,0.37,10.76,8.36,-4.69,-2.74,8.5
-1.6,-2.35,0.77,-2.12,4.26,-2.97,9.92,6.02,15.11,13.55,-3.02,-5.4,-3.01,-8.42,2.35,-2.16,12.41,7.64,-1.42,-2.12,9.15
-3.5,-4.17,0.75,-4.34,4.36,-3.6,8.42,4.67,11.94,11.46,-5.43,-10.03,-4.07,-10.0,7.58,-3.94,11.0,6.56,-3.64,-2.72,7.37
-2.35,-7.06,0.69,-6.02,3.97,-3.32,8.75,4.65,11.03,7.26,-6.81,-8.81,-5.01,-13.97,2.57,-5.56,12.12,7.31,-2.62,-0.4,6.79
-3.15,-8.42,0.62,-6.97,5.06,-4.64,8.57,1.45,6.58,1.37,-10.09,-10.54,-6.44,-15.04,-1.75,-7.71,13.05,4.34,-3.38,0.39,5.6
-4.38,-10.1,-0.32,-7.05,4.31,-5.1,5.61,-1.26,-0.58,-6.72,-6.8,-12.78,-7.75,-15.74,-1.76,-6.75,8.28,0.84,-3.99,0.41,2.36
-2.72,-8.42,0.83,-5.09,5.1,-3.8,4.25,-2.45,-3.47,-8.77,-12.81,-16.47,-5.86,-15.87,-2.49,-8.43,5.96,-0.77,-2.91,1.87,1.58
-4.18,-9.25,-1.05,-3.95,2.58,-2.48,1.26,-4.15,-5.4,-12.35,-8.8,-11.57,-10.06,-16.22,-3.08,-7.51,3.94,-3.56,-3.59,2.13,-0.51
-4.21,-9.4,1.18,-3.58,3.78,-3.29,-1.06,-7.72,-9.75,-15.98,-10.96,-14.8,-5.92,-15.14,5.7,-10.33,-1.51,-10.61,-3.87,3.02,-2.6
-3.24,-9.25,-0.19,-3.65,1.33,-2.02,-2.78,-8.08,-12.41,-18.84,-17.48,-18.74,-8.93,-14.65,-5.93,-10.15,-4.83,-11.21,-2.4,3.84,-2.32
-2.19,-8.65,0.31,-1.92,1.88,-0.6,0.54,-5.3,-8.47,-15.83,-15.33,-17.05,-10.26,-12.79,-9.63,-9.04,-3.86,-11.18,-1.64,8.33,0.97
-1.03,-6.95,0.2,-0.9,1.49,-2.08,0.83,-7.03,-8.27,-16.18,-16.97,-19.98,-9.91,-12.03,-9.17,-10.41,-5.44,-13.03,0.48,9.26,1.02
2.55,-3.55,2.64,1.74,2.76,-1.02,3.9,-4.3,-1.62,-11.11,-12.21,-16.55,-8.28,-10.75,-10.7,-9.39,-0.66,-9.64,2.31,11.47,5.45
1.49,-3.63,2.03,1.79,2.09,-1.86,4.59,-2.4,1.02,-7.84,-12.5,-14.41,-9.05,-9.49,-9.96,-9.4,0.34,-8.35,2.14,11.86,6.62
-1.32,-6.65,0.26,-0.92,2.89,-1.74,5.81,-0.08,3.75,-3.95,-8.0,-7.63,-9.52,-13.1,-3.87,-7.91,1.66,-6.0,-0.97,12.24,8.22
-0.13,-4.09,0.02,-0.96,2.1,-1.22,3.67,-1.5,2.24,-3.73,-8.6,-13.07,-8.49,-10.26,-6.2,-8.51,-1.23,-6.53,0.28,10.09,5.76
-0.5,-4.47,-0.13,-1.18,0.66,0.81,2.85,0.74,3.52,-1.21,-6.27,-9.04,-8.17,-10.86,-10.0,-5.45,0.18,-2.76,-0.08,8.51,6.23
1.56,0.58,-1.95,1.09,-1.92,1.92,0.41,0.26,3.5,-1.13,-6.99,-5.63,-10.38,-3.03,-11.3,-1.12,-2.11,-1.07,1.96,7.8,3.67
0.54,3.09,-1.27,2.64,-0.82,1.16,-0.01,-1.08,3.14,-0.57,-8.21,-4.19,-6.95,0.34,-10.63,1.58,-1.8,0.04,0.72,5.04,2.17
1.21,1.96,-1.41,1.72,-0.69,-1.02,1.26,-1.8,5.12,2.32,-3.44,-7.19,-8.02,-0.61,-8.15,-0.49,0.21,0.92,0.95,4.5,1.98
-1.61,-2.28,-0.96,0.85,1.15,-1.69,0.33,-3.06,2.7,-0.63,-11.31,-9.54,-3.65,-1.22,-4.1,-1.61,-1.04,-1.1,-1.76,3.95,0.27
3.74,4.33,0.2,1.03,2.05,-2.11,0.22,-1.57,1.21,-0.64,-10.02,-11.3,-2.81,-2.1,-2.19,-1.61,-1.33,-1.25,2.58,4.08,0.78
6.71,6.57,2.28,1.45,3.06,-2.81,-0.51,-2.92,0.84,-1.04,-6.17,-9.03,3.51,-1.88,0.97,-3.12,0.1,-1.47,4.78,2.11,-0.73
14.8,19.55,3.91,7.3,1.4,-1.11,-1.19,-1.21,-0.46,-0.6,-8.21,-5.54,3.8,7.16,-1.33,-0.01,-1.36,-0.76,11.89,2.55,0.26
15.18,22.47,3.22,5.45,0.7,-0.31,0.83,1.0,0.54,1.23,-2.99,-8.93,4.46,1.33,1.36,1.15,-0.33,2.67,11.77,3.4,2.08
19.75,29.01,6.54,9.55,1.77,0.08,0.69,-2.42,2.11,-0.85,-8.24,-12.97,7.77,10.66,3.12,-0.35,0.07,-1.59,15.05,3.83,1.76
24.82,44.42,4.77,14.29,-0.01,0.51,-0.13,-3.92,0.62,-3.65,-11.36,-8.38,5.82,25.33,-3.25,4.34,-1.44,-0.97,19.6,2.03,-0.29
29.71,50.02,6.78,15.6,1.15,-0.33,-0.57,-6.28,-0.8,-6.23,-14.24,-7.06,5.13,26.47,-2.81,4.48,-0.97,-4.14,23.53,1.09,-1.12
42.21,69.3,13.15,19.47,3.25,-2.35,-3.49,-10.48,-7.12,-11.76,-11.12,-10.34,18.42,30.8,-0.84,1.66,-5.2,-9.18,33.81,0.3,-5.1
48.66,79.49,14.08,21.23,2.3,-2.96,-5.97,-13.4,-11.84,-16.7,-15.05,-14.79,16.76,29.1,0.98,-2.35,-7.3,-12.57,39.81,-0.65,-7.66
54.82,88.1,17.86,21.03,0.46,-0.84,-6.17,-12.19,-12.13,-17.7,-19.04,-23.68,22.62,28.12,2.46,-2.79,-6.65,-13.24,44.87,0.76,-6.88
62.46,105.54,17.11,24.26,-0.36,0.52,-6.83,-10.94,-11.84,-16.64,-19.93,-20.1,24.25,37.87,3.37,-1.61,-7.33,-10.81,50.63,0.99,-5.89
60.29,110.71,12.73,26.1,-1.81,1.78,-7.03,-9.51,-11.3,-16.11,-25.2,-21.3,18.11,39.87,-3.59,-0.59,-8.28,-10.7,48.45,-0.18,-5.44
65.92,119.1,13.12,28.79,-3.59,3.26,-8.08,-8.49,-10.3,-15.0,-25.22,-24.09,19.59,44.71,-7.38,0.15,-8.83,-10.05,53.83,-1.95,-4.45
68.75,129.57,16.12,30.95,-2.72,2.3,-9.99,-8.84,-12.38,-15.99,-26.49,-25.8,22.15,44.37,-6.04,-2.6,-11.1,-10.95,55.25,-2.62,-7.55
74.29,137.23,17.61,33.74,-2.43,2.38,-12.94,-11.58,-17.25,-21.19,-27.81,-27.88,21.12,50.01,-0.14,-1.82,-14.94,-12.86,61.24,-3.47,-10.55
78.06,145.05,20.73,35.6,-1.47,1.48,-13.3,-13.61,-17.82,-22.35,-28.92,-26.28,26.68,53.75,-2.9,-1.98,-13.49,-15.37,63.61,-3.55,-12.09
78.83,150.4,19.21,35.38,-0.31,1.12,-11.62,-12.26,-17.39,-21.26,-25.45,-22.27,23.36,58.99,-0.71,2.63,-10.33,-13.21,64.5,-3.34,-10.89
81.58,152.24,20.84,36.48,0.48,-0.64,-12.18,-14.89,-19.73,-23.3,-24.67,-26.27,28.97,56.24,0.96,-0.66,-11.24,-16.53,66.4,-4.58,-11.41
86.38,159.37,22.2,38.1,1.25,-0.93,-10.22,-13.92,-14.97,-20.57,-20.0,-24.49,27.99,56.4,-1.02,1.02,-8.34,-15.31,71.24,-5.37,-9.94
81.17,155.57,21.2,38.41,-1.83,1.06,-12.34,-13.6,-18.37,-20.21,-29.57,-30.74,21.38,56.79,-3.93,2.87,-14.24,-15.45,67.08,-5.24,-11.4
88.62,164.15,23.73,41.73,-1.04,-0.22,-13.79,-16.64,-18.56,-22.64,-27.85,-28.11,25.49,62.71,-4.5,-1.37,-14.31,-18.02,73.73,-4.5,-12.88
88.35,163.83,24.94,40.76,1.08,-1.8,-11.89,-17.45,-17.56,-21.28,-20.23,-27.17,28.09,56.99,0.31,-3.02,-11.53,-19.02,72.23,-5.36,-12.4
84.35,157.8,23.46,38.82,0.81,-1.95,-12.26,-17.58,-17.88,-21.55,-27.07,-28.23,26.4,58.26,2.19,-5.42,-13.53,-19.68,69.58,-5.9,-13.34
83.44,158.09,23.26,38.47,1.3,-0.86,-10.63,-16.68,-14.65,-20.07,-25.29,-27.91,26.78,59.52,-0.49,-3.08,-11.25,-17.32,68.2,-5.25,-10.66
